time_s,Fp1,Fp2,F3,F4,C3,C4,O1,O2
0.0,-14.473,7.03,-20.227,14.527,-15.976,-7.584,4.517,-2.659
0.0039,-11.72,0.394,-19.865,14.224,-15.117,-2.438,6.965,-2.302
0.0078,-12.969,-1.885,-19.843,9.911,-16.184,-5.882,7.77,-2.456
0.0117,-12.677,-7.868,-20.389,14.597,-18.896,-4.918,7.158,-1.854
0.0156,-13.952,-10.532,-15.453,15.239,-15.957,-10.581,2.803,-0.16
0.0195,-9.088,-10.658,-13.617,12.958,-16.268,-12.193,8.532,-1.284
0.0234,-7.383,-13.668,-16.483,15.124,-13.12,-15.063,3.508,-0.718
0.0273,-7.413,-14.706,-10.058,6.957,-10.31,-14.632,6.361,5.69
0.0312,-5.214,-11.011,-5.66,6.155,-4.953,-15.674,3.676,5.994
0.0352,-7.739,-11.0,-9.727,3.631,-6.929,-14.836,7.771,7.318
0.0391,-12.059,-14.952,-4.468,2.019,-3.365,-16.756,4.601,8.087
0.043,-10.8,-9.575,-0.216,2.1,-2.103,-13.178,3.831,7.082
0.0469,-13.851,-10.45,-4.608,-0.535,-6.27,-12.719,7.252,9.974
0.0508,-10.179,-9.421,-3.827,-7.832,-9.748,-14.307,6.877,8.094
0.0547,-12.286,-10.15,-7.482,-9.328,-1.55,-6.886,8.328,11.702
0.0586,-13.24,-10.452,-1.948,-10.051,-4.823,-7.816,9.874,10.365
0.0625,-14.859,-13.056,-4.488,-4.118,-6.58,-7.055,9.805,9.775
0.0664,-10.903,-10.139,-2.535,-3.601,-6.118,-6.719,4.511,10.181
0.0703,-12.49,-11.401,1.643,-5.755,-4.899,-8.443,2.397,7.797
0.0742,-11.406,-9.93,0.98,-8.333,-0.141,-6.805,3.565,12.37
0.0781,-10.121,-12.562,-2.168,-7.836,-1.625,-8.894,4.485,14.915
0.082,-8.313,-6.617,-1.931,-4.002,0.138,-5.17,6.365,15.966
0.0859,-9.427,-9.714,0.573,-2.24,-3.092,-6.326,1.112,10.737
0.0898,-9.992,-8.277,-1.049,-7.098,-6.702,-5.341,2.519,8.873
0.0938,-9.631,-11.678,-3.629,-4.227,-8.39,-5.221,6.202,9.289
0.0977,-4.749,-9.448,0.144,-1.514,-7.326,-2.513,9.711,12.424
0.1016,-7.807,-5.89,-3.704,-5.936,-7.411,-1.825,6.536,10.363
0.1055,-6.069,-9.39,1.682,-2.137,-7.951,-2.464,9.639,9.049
0.1094,-4.95,-15.481,-0.903,-2.413,-11.631,-2.087,13.391,8.142
0.1133,-0.116,-10.352,-1.415,-4.309,-11.529,-1.331,11.755,9.807
0.1172,3.695,-13.031,1.369,-1.895,-10.333,-3.774,11.112,9.992
0.1211,4.767,-7.842,1.032,-1.742,-10.609,-4.925,13.158,14.443
0.125,6.839,-9.526,3.661,-4.094,-9.892,-6.479,16.481,16.383
0.1289,9.296,-7.936,8.071,-4.682,-7.561,-3.674,11.748,13.948
0.1328,13.04,-4.967,10.438,0.077,-5.984,5.388,17.916,18.12
0.1367,12.762,-7.503,7.566,-5.173,-4.767,1.839,13.572,16.885
0.1406,11.59,-5.334,6.06,-2.065,-4.408,8.465,14.844,11.037
0.1445,8.834,-1.248,4.846,-6.945,-10.051,7.288,17.09,10.862
0.1484,10.73,2.441,2.169,-8.148,-8.532,8.941,14.938,9.903
0.1523,10.448,-1.685,5.81,-8.138,-8.197,9.06,14.202,8.278
0.1562,9.929,-3.341,-0.864,-10.149,-6.657,14.632,15.891,3.204
0.1602,9.947,0.435,2.702,-6.316,-10.517,19.598,12.211,5.002
0.1641,7.478,-2.99,1.52,-9.799,-11.213,18.561,10.304,3.703
0.168,7.952,-2.367,-3.853,-3.696,-13.014,14.754,5.069,3.544
0.1719,6.979,-4.914,-1.1,-9.155,-7.975,10.8,3.904,-2.133
0.1758,7.585,-2.703,-1.218,-4.588,-7.708,10.756,-3.073,-2.288
0.1797,7.469,-2.194,-0.513,-2.066,-7.818,10.962,-4.324,-2.029
0.1836,1.288,-1.341,-0.591,-1.914,-7.267,14.944,-7.225,-2.319
0.1875,0.999,-5.315,6.132,-5.507,-5.404,14.666,-6.805,-5.074
0.1914,-1.385,-0.466,-0.998,-6.032,-10.348,10.365,-11.641,-6.83
0.1953,-2.657,-5.203,2.351,-6.908,-9.857,8.191,-10.738,-12.424
0.1992,-1.856,-6.138,3.232,-7.301,-4.776,11.414,-11.057,-10.254
0.2031,2.108,-3.837,1.894,-13.19,-6.098,6.282,-4.739,-12.332
0.207,-2.316,-9.256,2.742,-9.458,-4.139,7.821,-8.948,-10.541
0.2109,1.693,-13.077,2.476,-8.398,-3.888,6.995,-9.857,-6.333
0.2148,-2.602,-13.272,8.095,-9.398,-3.203,1.687,-7.914,-11.954
0.2188,2.175,-9.917,12.569,-8.488,-0.957,-0.623,-6.105,-8.431
0.2227,5.978,-8.677,15.198,-10.6,5.329,-2.608,-9.963,-8.082
0.2266,9.372,-12.204,17.611,-13.762,9.969,1.186,-9.199,-2.231
0.2305,10.978,-9.648,20.517,-17.719,12.78,2.687,-5.669,2.195
0.2344,11.134,-7.896,20.687,-14.327,9.816,-0.165,-5.989,1.794
0.2383,8.158,-7.601,20.148,-17.41,15.448,-0.308,-6.798,1.155
0.2422,7.508,-2.491,18.446,-18.218,12.656,-0.169,-8.555,3.258
0.2461,10.461,0.83,19.283,-18.091,12.683,2.605,-5.456,0.692
0.25,9.102,5.31,18.463,-17.723,14.662,4.027,-7.331,1.741
0.2539,7.427,6.374,17.179,-20.698,16.826,7.83,-4.152,1.902
0.2578,7.625,3.539,13.882,-17.858,15.494,11.096,0.611,-5.296
0.2617,7.739,4.299,12.194,-19.104,12.691,10.353,-0.476,-0.412
0.2656,10.748,7.467,11.776,-12.898,14.056,10.497,-4.033,-3.453
0.2695,11.075,7.031,10.928,-11.246,12.744,9.921,-10.597,-3.597
0.2734,13.657,11.326,13.038,-6.839,11.993,9.655,-10.244,1.118
0.2773,12.411,11.221,8.951,-8.4,12.046,10.186,-9.546,-2.153
0.2812,13.343,10.101,7.975,-5.331,13.427,13.61,-8.73,2.202
0.2852,12.905,10.769,7.655,-0.094,10.355,9.09,-11.385,-5.862
0.2891,9.389,16.681,4.744,-0.36,5.186,15.652,-10.001,-7.795
0.293,9.952,14.813,7.142,-1.463,7.459,12.442,-6.038,-6.889
0.2969,7.751,19.162,6.222,5.954,3.414,13.499,-7.726,-11.12
0.3008,8.954,14.286,1.37,-1.139,6.616,14.419,-6.126,-10.76
0.3047,9.401,14.02,-0.575,1.953,-0.433,12.218,-6.627,-11.889
0.3086,7.881,15.887,0.278,4.803,0.723,11.537,-6.875,-12.256
0.3125,11.384,7.269,-1.807,6.887,-1.269,9.666,-6.347,-13.114
0.3164,10.26,5.021,-0.488,7.475,-1.64,8.687,-8.272,-12.469
0.3203,12.808,11.665,4.942,7.827,0.948,8.157,-5.59,-11.027
0.3242,15.473,7.819,5.004,7.274,7.928,4.149,-5.081,-7.601
0.3281,16.225,9.468,4.3,4.978,6.892,6.148,-7.415,-9.46
0.332,15.906,8.26,4.558,11.25,6.158,0.256,-5.033,-8.817
0.3359,12.269,10.382,-1.367,6.205,4.139,4.068,-2.863,-9.428
0.3398,9.068,9.149,5.362,6.852,4.033,6.723,-2.72,-6.912
0.3438,7.627,12.242,3.062,3.071,6.438,3.806,-5.588,-10.131
0.3477,2.889,14.449,2.928,0.726,6.758,2.986,-7.187,-16.324
0.3516,1.954,11.158,-0.537,-1.123,8.058,4.47,-4.61,-16.65
0.3555,0.315,10.188,-3.408,-3.525,3.839,0.703,-3.106,-14.424
0.3594,-1.419,8.968,-5.249,0.393,7.474,4.589,-10.837,-12.662
0.3633,-0.9,5.495,-3.824,1.545,9.052,7.107,-6.192,-13.933
0.3672,-4.975,7.122,-4.26,5.931,10.432,1.287,-13.099,-13.37
0.3711,-4.464,8.265,-1.155,1.7,4.621,-0.919,-15.433,-14.416
0.375,-1.395,6.987,-6.082,3.138,8.404,-6.298,-16.433,-10.017
0.3789,-5.661,6.392,-4.578,2.995,9.242,-5.841,-15.721,-9.804
0.3828,-5.517,5.818,0.132,8.606,10.93,-1.107,-19.093,-10.46
0.3867,-11.519,3.906,-5.075,4.807,6.901,-3.658,-18.043,-8.716
0.3906,-12.326,6.637,-3.762,7.677,11.285,-9.273,-16.678,-15.327
0.3945,-14.905,8.344,-4.781,7.49,7.187,-9.452,-16.47,-12.846
0.3984,-13.596,4.065,-2.815,3.858,6.669,-8.95,-13.949,-11.931
0.4023,-10.597,4.303,-5.904,0.602,10.011,-11.324,-12.314,-9.459
0.4062,-15.126,0.39,-5.335,1.039,6.317,-13.115,-7.437,-12.131
0.4102,-10.22,-0.632,-2.57,6.83,6.431,-10.532,-4.872,-7.424
0.4141,-9.494,0.695,-3.692,3.951,3.888,-11.193,-4.119,-4.443
0.418,-9.015,-1.158,1.738,7.831,3.547,-13.534,-4.581,-2.206
0.4219,-7.752,-4.707,3.693,6.976,7.046,-14.542,-2.259,2.182
0.4258,-1.847,0.788,4.939,6.914,14.826,-19.6,-0.282,4.955
0.4297,-1.302,3.198,3.038,6.866,13.015,-15.47,5.725,6.65
0.4336,0.479,1.371,8.953,4.247,12.174,-14.851,4.792,10.18
0.4375,-0.649,5.654,4.398,4.244,8.475,-13.354,3.555,8.886
0.4414,1.797,4.882,2.518,7.011,10.803,-12.446,3.146,9.016
0.4453,-2.003,5.892,-1.218,3.047,5.123,-11.59,6.197,9.693
0.4492,-3.261,10.758,-2.215,-2.343,3.723,-13.656,8.446,7.928
0.4531,-0.771,7.125,-2.446,4.438,4.32,-2.195,12.502,9.004
0.457,-1.278,9.304,-4.845,2.623,7.122,-1.305,11.411,10.158
0.4609,-0.032,11.463,-7.138,8.281,4.31,-3.756,14.906,8.895
0.4648,-1.848,4.867,-9.226,12.869,-2.722,-0.06,8.147,8.717
0.4688,-2.803,6.563,-13.649,12.167,-4.484,-2.725,5.727,9.957
0.4727,-0.053,7.436,-11.007,15.466,-6.844,-3.148,7.316,6.523
0.4766,-5.16,9.038,-16.058,14.964,-3.806,-3.612,5.189,4.526
0.4805,-5.02,7.35,-18.395,19.3,-4.919,-0.466,3.854,6.454
0.4844,-7.779,9.621,-16.314,15.578,-6.063,-3.028,4.283,5.226
0.4883,-9.347,7.865,-16.383,18.655,-8.726,-4.257,2.966,3.242
0.4922,-13.4,6.426,-15.942,19.78,-13.425,-0.809,3.831,2.416
0.4961,-10.381,4.835,-17.409,16.731,-13.473,-4.125,2.938,-5.815
0.5,-12.313,3.27,-18.517,17.853,-16.839,-4.139,4.518,-0.088
0.5039,-14.918,-2.61,-22.661,13.808,-15.105,-2.37,7.266,0.809
0.5078,-14.367,-3.118,-20.976,18.892,-18.082,-5.722,10.227,-1.32
0.5117,-12.016,-10.458,-22.241,19.445,-16.761,-7.237,10.836,-0.969
0.5156,-10.569,-8.715,-20.397,15.621,-16.466,-8.589,7.076,-2.148
0.5195,-6.853,-9.048,-11.772,14.883,-15.134,-15.17,6.233,-0.339
0.5234,-3.11,-11.615,-12.25,13.995,-10.665,-13.546,5.193,3.433
0.5273,-6.716,-13.131,-7.344,6.908,-12.386,-16.15,6.984,6.23
0.5312,-9.448,-12.743,-5.601,4.658,-9.345,-12.829,7.3,8.821
0.5352,-12.938,-19.468,-7.602,7.954,-6.908,-13.296,9.181,9.75
0.5391,-9.805,-12.365,-3.513,3.695,-8.996,-13.576,2.394,10.169
0.543,-13.164,-11.738,-4.708,-0.416,-6.484,-17.373,5.634,9.4
0.5469,-12.763,-10.377,-6.779,-3.469,-5.542,-13.276,7.542,5.705
0.5508,-13.16,-8.687,-3.585,-11.202,-1.287,-13.429,8.226,10.092
0.5547,-12.468,-11.22,-5.816,-8.263,-3.354,-8.946,7.598,13.099
0.5586,-10.738,-14.721,-6.083,-9.243,-2.08,-12.094,6.931,9.899
0.5625,-13.183,-13.505,-0.371,-4.895,-4.244,-10.461,9.818,12.951
0.5664,-13.665,-12.824,-5.68,-3.853,-6.012,-5.87,4.634,8.03
0.5703,-14.252,-11.79,-0.299,-4.389,-3.802,-8.362,0.87,10.321
0.5742,-13.899,-10.854,-2.333,-4.75,-1.276,-9.843,5.231,10.412
0.5781,-10.389,-8.817,1.4,-8.218,0.442,-10.125,4.325,15.975
0.582,-9.485,-13.106,-0.039,-3.162,-2.694,-9.408,3.207,17.266
0.5859,-6.622,-10.302,0.342,-2.08,-7.376,-6.172,1.426,13.243
0.5898,-10.557,-7.123,-1.69,-0.475,-9.519,-7.043,2.928,14.253
0.5938,-8.527,-11.931,-0.926,0.652,-8.262,-2.935,6.282,13.664
0.5977,-10.031,-7.443,2.105,-8.136,-13.125,-5.364,2.535,9.589
0.6016,-9.364,-9.537,2.798,-6.278,-5.462,-3.15,5.394,10.18
0.6055,-6.975,-10.705,-0.59,-6.601,-8.751,-4.355,9.861,12.066
0.6094,-4.773,-13.463,-3.051,-3.367,-12.38,-1.526,12.576,9.363
0.6133,2.909,-12.768,1.073,-2.114,-14.098,-0.877,11.918,11.396
0.6172,-0.205,-8.261,7.621,-1.777,-9.445,-3.0,13.916,15.781
0.6211,6.672,-13.193,5.016,0.571,-12.069,-3.792,14.847,11.572
0.625,6.713,-11.69,8.784,-4.392,-9.659,-1.569,13.939,16.066
0.6289,12.809,-10.95,4.557,-4.825,-7.481,2.455,15.488,17.096
0.6328,12.508,-3.87,5.891,-4.985,-5.274,1.707,15.463,16.286
0.6367,10.962,-6.633,7.352,-3.939,-4.85,5.44,14.741,16.027
0.6406,10.422,-3.4,7.038,-6.679,-4.54,5.901,11.566,16.902
0.6445,8.856,-1.66,4.177,-6.169,-5.249,8.65,11.852,12.137
0.6484,11.158,-1.102,2.463,-8.428,-7.336,7.821,11.585,10.641
0.6523,9.305,0.507,3.667,-10.835,-5.441,11.648,14.5,11.153
0.6562,7.041,4.912,1.897,-7.204,-9.588,14.217,14.919,6.046
0.6602,5.648,1.572,1.495,-7.571,-13.103,16.906,9.658,2.646
0.6641,7.376,-3.49,2.341,-3.581,-11.695,17.031,9.406,5.967
0.668,9.753,-0.287,-0.103,-4.965,-11.802,14.455,3.728,0.658
0.6719,7.164,-2.864,-0.391,-4.267,-10.206,14.851,0.043,0.992
0.6758,6.77,-4.898,2.822,-5.259,-9.304,11.544,-1.536,-2.721
0.6797,6.778,-0.14,1.073,-3.789,-7.432,14.438,-4.537,-0.834
0.6836,6.815,-0.881,-2.436,-1.734,-5.508,14.419,-3.194,-5.096
0.6875,2.077,-1.681,-1.927,-3.733,-4.228,12.757,-7.028,-5.141
0.6914,-1.266,-4.72,2.141,-2.656,-11.788,10.242,-6.951,-9.334
0.6953,0.834,-4.167,1.538,-7.156,-10.749,10.224,-10.241,-11.928
0.6992,-0.449,-3.273,1.946,-6.155,-8.863,6.529,-9.653,-11.654
0.7031,2.19,-6.129,4.043,-10.286,-4.719,8.636,-3.952,-15.434
0.707,-0.218,-10.466,4.039,-7.729,-5.888,8.318,-10.213,-12.574
0.7109,-2.693,-15.212,7.225,-8.899,-6.139,3.411,-4.715,-8.184
0.7148,-1.973,-12.734,4.019,-5.79,-1.699,4.361,-5.101,-8.462
0.7188,6.147,-10.465,12.053,-11.847,1.653,-1.849,-7.947,-10.021
0.7227,9.1,-14.004,15.932,-14.0,3.629,-2.036,-10.392,-4.437
0.7266,7.841,-9.293,13.417,-13.912,6.012,-1.568,-6.267,-4.293
0.7305,8.789,-8.9,16.382,-16.616,11.153,-2.603,-8.894,1.543
0.7344,12.47,-6.576,17.132,-17.359,11.72,-0.229,-9.157,1.224
0.7383,6.641,-3.884,20.049,-14.261,12.356,0.362,-8.425,0.738
0.7422,6.644,-3.769,24.046,-17.069,12.347,-0.61,-8.53,0.419
0.7461,10.032,-2.415,24.528,-20.008,16.043,3.737,-8.261,5.15
0.75,8.695,1.963,17.273,-21.331,15.5,3.599,-2.39,-1.416
0.7539,9.968,5.738,17.727,-21.816,17.235,12.6,-4.452,0.924
0.7578,9.564,3.113,15.956,-15.665,17.086,10.051,-2.311,2.019
0.7617,10.253,3.339,14.841,-17.686,14.12,8.821,-5.967,-2.184
0.7656,12.569,2.496,14.95,-16.033,11.368,8.907,-4.846,-4.485
0.7695,10.972,11.706,14.838,-9.534,14.545,12.587,-9.05,-3.141
0.7734,13.564,11.8,16.883,-9.729,14.07,9.472,-10.189,-0.313
0.7773,9.165,12.937,14.096,-3.241,18.669,8.342,-8.406,-2.087
0.7812,12.929,13.975,7.856,-5.9,13.227,13.793,-6.273,-2.045
0.7852,9.967,13.836,10.034,-0.52,11.915,11.8,-8.004,-1.225
0.7891,7.57,13.298,9.2,1.989,8.518,13.81,-8.491,-7.241
0.793,7.282,14.798,7.013,-0.288,5.567,14.042,-9.832,-8.592
0.7969,8.407,15.026,7.004,-0.635,3.857,12.828,-9.199,-13.465
0.8008,11.512,20.583,2.845,2.501,4.02,17.761,-4.982,-10.733
0.8047,7.512,14.55,0.7,3.232,3.415,10.184,-5.719,-11.206
0.8086,10.334,10.174,-0.554,1.288,3.393,11.73,-1.928,-10.38
0.8125,9.442,10.314,-4.416,4.095,0.749,11.219,-1.418,-14.796
0.8164,10.544,6.794,0.917,2.781,-0.614,13.703,-6.596,-13.212
0.8203,14.789,12.101,1.213,9.387,1.268,10.354,-7.129,-14.867
0.8242,15.587,8.15,0.863,7.22,1.741,7.894,-6.94,-11.322
0.8281,18.006,10.512,5.965,6.886,9.927,3.344,-8.418,-6.092
0.832,14.267,11.563,3.715,3.567,6.659,3.637,-6.268,-8.671
0.8359,11.074,10.615,2.528,4.449,9.731,3.182,-3.198,-11.115
0.8398,9.467,11.239,1.525,4.702,8.029,2.822,-8.727,-11.211
0.8438,8.271,12.624,2.87,2.395,8.118,7.134,-4.478,-14.733
0.8477,6.616,13.437,2.89,1.671,7.79,4.156,-7.704,-15.117
0.8516,2.679,12.021,-2.966,0.955,6.931,5.561,-1.859,-11.422
0.8555,3.142,10.689,-3.516,4.113,6.446,8.308,-7.173,-15.657
0.8594,1.032,12.622,-2.963,0.674,11.114,3.285,-7.11,-12.498
0.8633,3.335,8.135,-8.43,4.59,7.225,5.098,-10.977,-13.815
0.8672,0.589,6.395,-3.751,1.928,9.437,0.259,-13.385,-15.463
0.8711,-5.415,6.995,-3.75,0.743,11.18,-0.579,-11.687,-13.61
0.875,-4.568,9.987,-3.177,3.588,9.186,-2.807,-14.774,-14.687
0.8789,-7.876,8.286,-4.498,1.597,11.798,-3.855,-14.303,-9.667
0.8828,-8.174,6.979,-3.683,5.75,10.729,-3.036,-19.501,-12.011
0.8867,-9.02,4.702,0.024,4.985,7.026,-4.45,-16.164,-11.779
0.8906,-9.503,6.402,-3.932,2.644,7.549,-7.118,-19.671,-13.04
0.8945,-14.463,4.185,-2.432,9.022,8.275,-7.449,-19.582,-11.297
0.8984,-14.226,4.475,0.503,3.075,5.917,-10.629,-14.233,-11.117
0.9023,-16.572,5.272,-5.532,0.081,6.175,-7.568,-11.209,-15.907
0.9062,-11.997,2.618,-1.334,5.564,6.002,-9.519,-8.717,-8.192
0.9102,-13.213,-3.327,-4.257,3.654,9.853,-11.181,-5.549,-10.392
0.9141,-11.028,-4.148,1.269,8.652,1.721,-13.928,-4.365,-5.926
0.918,-9.58,-1.958,1.661,5.58,7.291,-15.2,-2.496,-3.377
0.9219,-5.049,2.292,2.662,5.666,7.76,-12.551,-6.517,-0.895
0.9258,-5.507,-3.951,2.698,6.849,9.171,-16.62,0.98,4.433
0.9297,-3.177,1.289,1.509,7.109,11.194,-17.875,4.136,8.211
0.9336,4.272,-0.937,2.622,7.651,12.96,-12.477,1.624,7.283
0.9375,-3.268,2.394,4.083,6.015,11.876,-14.124,0.395,7.669
0.9414,-3.6,5.533,1.842,6.639,9.352,-11.455,2.202,8.651
0.9453,2.15,8.022,-0.099,5.797,10.024,-11.481,5.795,5.016
0.9492,4.596,9.408,-2.522,3.558,9.395,-5.059,13.138,7.065
0.9531,-3.473,10.652,-3.314,2.855,7.071,-5.7,11.514,10.976
0.957,-2.455,8.713,-5.814,1.805,2.121,0.831,11.577,5.223
0.9609,-2.067,5.964,-11.429,8.545,1.503,-2.886,11.151,6.79
0.9648,-0.061,10.246,-12.133,10.168,-0.822,-1.592,8.281,5.066
0.9688,-5.49,10.628,-10.379,11.306,-4.767,0.969,10.741,9.31
0.9727,-3.47,11.187,-8.926,16.03,-6.702,-1.974,7.402,4.041
0.9766,-1.228,6.083,-11.283,11.8,-8.008,2.468,11.074,4.489
0.9805,-2.871,8.68,-17.924,19.414,-5.104,-2.078,7.627,3.369
0.9844,-6.678,8.174,-17.321,17.657,-7.046,-0.914,7.217,4.307
0.9883,-8.836,3.894,-19.291,19.306,-12.911,1.747,4.004,2.555
0.9922,-13.396,5.454,-18.283,17.644,-10.939,-6.1,1.628,-2.345
0.9961,-12.128,4.311,-15.194,13.778,-14.28,-7.042,2.432,-0.469
1.0,-12.401,6.168,-22.426,15.269,-12.739,-5.435,2.857,-2.573
1.0039,-11.512,2.963,-23.93,15.341,-15.438,-2.128,9.096,-1.188
1.0078,-13.447,-8.161,-22.423,16.106,-19.2,-7.606,7.429,-3.112
1.0117,-11.7,-3.246,-18.652,14.805,-16.763,-5.107,9.799,-1.667
1.0156,-10.22,-12.216,-15.149,10.672,-15.883,-8.147,7.052,-2.091
1.0195,-10.536,-9.459,-12.378,10.695,-16.367,-8.058,5.196,2.563
1.0234,-8.235,-10.096,-8.392,15.716,-15.138,-11.897,3.221,2.269
1.0273,-7.439,-14.77,-12.615,7.097,-9.044,-13.91,6.625,4.981
1.0312,-7.469,-12.557,-5.441,10.136,-9.217,-11.821,6.083,6.463
1.0352,-10.117,-13.96,-6.988,3.573,-4.126,-13.312,8.334,7.465
1.0391,-9.707,-11.861,-3.23,2.782,-6.924,-15.325,4.741,8.848
1.043,-11.732,-11.05,-6.033,1.287,-2.221,-16.448,7.335,9.466
1.0469,-7.746,-7.883,-3.077,-5.131,-9.041,-14.208,10.145,6.385
1.0508,-8.789,-9.949,-3.359,-3.246,-3.637,-11.154,8.824,8.68
1.0547,-11.415,-11.407,-2.562,-7.731,-0.78,-8.522,11.047,9.75
1.0586,-14.396,-10.248,-8.373,-6.815,-5.919,-11.734,10.674,10.669
1.0625,-15.722,-12.061,-4.26,-7.266,-5.166,-7.818,12.001,6.537
1.0664,-10.966,-11.496,-4.799,-4.525,-5.747,-8.19,6.891,8.015
1.0703,-11.656,-13.349,-0.054,-2.385,-5.437,-8.005,5.78,7.649
1.0742,-9.589,-13.269,1.211,-5.804,-2.246,-5.881,3.445,11.76
1.0781,-12.906,-12.031,2.158,-1.763,-4.536,-7.936,1.858,11.414
1.082,-7.523,-12.176,-1.706,-5.566,-2.652,-9.058,1.023,12.992
1.0859,-9.249,-9.081,1.437,-1.81,-3.049,-10.208,5.789,11.053
1.0898,-13.038,-7.751,2.921,-1.988,-6.514,-4.982,1.139,11.105
1.0938,-11.436,-8.772,-2.681,-5.722,-9.609,-7.767,5.343,8.114
1.0977,-8.505,-4.941,1.475,-4.323,-6.389,-3.261,6.597,11.17
1.1016,-6.889,-5.629,1.173,-5.486,-7.592,-0.473,10.358,10.879
1.1055,-5.629,-9.477,-2.068,-6.823,-12.027,-4.666,10.087,10.899
1.1094,-3.529,-13.297,-3.678,-2.996,-13.697,0.303,11.048,10.444
1.1133,-1.852,-9.278,2.281,-1.848,-13.783,1.354,13.667,7.1
1.1172,1.742,-12.066,0.367,-1.455,-10.411,-0.216,12.046,10.579
1.1211,7.938,-10.412,4.454,-1.622,-9.29,-7.013,10.207,11.049
1.125,3.386,-10.03,5.78,-2.369,-6.042,-3.93,17.259,14.853
1.1289,10.472,-10.125,7.469,-3.478,-6.601,-3.135,12.785,17.288
1.1328,12.091,-10.262,4.722,-2.657,-7.351,2.464,12.932,17.263
1.1367,11.868,-4.442,4.744,-4.506,-4.254,3.978,14.237,18.109
1.1406,9.76,-4.915,6.442,1.091,-8.033,-0.738,16.659,12.26
1.1445,6.652,5.264,7.723,-8.89,-6.966,5.88,9.575,9.811
1.1484,10.922,-1.385,8.656,-9.266,-10.438,10.642,16.627,11.297
1.1523,13.67,-1.538,-1.324,-10.274,-8.621,12.358,12.974,8.284
1.1562,6.424,1.016,0.144,-4.871,-6.228,14.915,14.984,6.131
1.1602,9.932,1.846,-3.702,-10.092,-10.893,15.083,11.205,8.433
1.1641,6.373,-1.655,0.77,-4.855,-8.724,13.328,13.245,3.586
1.168,6.472,-0.438,-2.249,-4.078,-14.852,14.171,5.728,0.003
1.1719,4.738,-4.888,-1.118,-3.551,-10.061,13.202,0.765,-2.167
1.1758,6.338,-2.7,-1.059,-1.661,-7.728,13.901,-0.887,1.456
1.1797,8.806,-4.326,-0.506,-1.343,-3.025,14.061,-2.117,-1.197
1.1836,5.368,-6.992,0.176,-4.06,-9.086,12.559,-4.052,-2.853
1.1875,5.102,-3.539,1.107,-2.523,-6.316,13.592,-5.815,-3.916
1.1914,1.911,-8.266,1.145,-7.421,-6.224,9.224,-8.584,-6.278
1.1953,-0.501,-6.478,-0.767,-5.333,-9.617,5.909,-12.109,-9.073
1.1992,2.182,-5.846,3.455,-9.261,-8.027,9.271,-9.522,-9.28
1.2031,-0.004,-8.574,1.792,-9.499,-5.967,8.492,-6.485,-9.944
1.207,1.072,-8.886,4.845,-12.803,-8.441,8.711,-8.306,-9.145
1.2109,-0.837,-11.362,3.15,-8.211,-5.601,3.541,-5.938,-11.212
1.2148,0.897,-11.174,4.677,-12.225,-0.58,6.994,-8.347,-5.537
1.2188,1.45,-11.118,11.479,-9.242,0.785,2.07,-9.914,-10.34
1.2227,7.632,-9.328,17.134,-13.501,3.353,-1.756,-7.343,-4.914
1.2266,5.843,-10.574,16.792,-14.378,7.87,-3.518,-12.598,-5.21
1.2305,11.12,-8.956,17.293,-11.537,11.774,1.013,-9.601,-0.097
1.2344,9.166,-7.053,17.073,-13.418,13.731,-2.598,-5.28,0.312
1.2383,11.198,-5.345,23.521,-13.206,11.725,4.752,-3.988,1.66
1.2422,9.935,-3.174,18.731,-13.941,16.442,-0.196,-2.818,1.285
1.2461,12.386,0.154,19.032,-20.595,16.826,6.042,-6.267,-1.882
1.25,10.946,1.395,20.042,-17.56,16.355,4.758,-3.694,0.043
1.2539,6.834,4.803,12.962,-23.552,13.478,11.186,-1.27,3.258
1.2578,9.757,4.009,17.388,-17.474,12.373,8.8,0.298,-2.168
1.2617,7.234,3.401,15.314,-17.202,12.549,11.201,-2.453,-1.967
1.2656,8.717,4.814,15.951,-15.25,12.502,12.485,-3.056,0.425
1.2695,13.813,5.78,15.347,-9.897,8.928,11.616,-5.819,-1.783
1.2734,13.551,12.106,13.186,-7.408,14.128,12.492,-6.783,-1.529
1.2773,11.867,11.554,9.764,-5.488,16.037,10.094,-10.024,0.641
1.2812,10.999,10.314,9.696,-4.418,13.76,12.255,-9.045,-3.171
1.2852,11.719,14.3,6.492,-1.948,9.167,15.128,-9.93,-4.085
1.2891,7.575,12.666,8.388,0.878,6.348,11.093,-11.887,-6.913
1.293,7.696,12.313,7.996,1.362,6.364,13.316,-12.876,-9.11
1.2969,9.699,17.924,7.695,1.934,4.068,11.841,-9.375,-7.758
1.3008,11.991,14.239,3.213,1.427,4.317,13.381,-7.092,-14.777
1.3047,11.382,12.62,2.148,3.768,3.576,13.803,-4.382,-14.053
1.3086,5.69,11.184,-1.391,0.855,3.268,11.79,-2.485,-14.703
1.3125,11.019,11.669,-1.336,6.09,-2.133,11.209,-3.514,-9.702
1.3164,11.343,8.856,2.025,5.086,0.755,9.471,-5.427,-14.057
1.3203,13.611,6.694,1.776,8.75,1.195,6.553,-7.57,-12.963
1.3242,17.744,10.56,3.774,11.028,4.189,8.462,-4.094,-14.059
1.3281,11.205,8.54,0.975,6.262,8.334,6.952,-5.688,-9.58
1.332,13.393,13.207,0.944,7.204,9.688,5.572,-6.196,-6.297
1.3359,13.648,9.843,3.859,8.158,10.593,3.313,-6.174,-7.877
1.3398,6.751,6.58,4.428,1.522,8.327,2.741,-8.101,-10.067
1.3438,10.738,13.317,0.306,2.696,7.291,8.096,-8.19,-14.641
1.3477,7.0,17.439,2.248,2.165,7.519,2.624,-7.962,-13.182
1.3516,6.541,16.327,-2.377,-6.006,5.037,6.012,-6.661,-12.47
1.3555,1.819,15.25,-3.473,-2.379,11.063,7.481,-4.498,-14.748
1.3594,2.203,7.624,-1.865,2.915,7.013,5.99,-6.008,-11.813
1.3633,0.437,10.177,-2.943,4.365,8.008,2.989,-6.063,-12.096
1.3672,-2.699,6.523,-2.044,4.337,8.545,0.882,-9.586,-15.457
1.3711,-3.239,8.476,0.926,5.858,5.919,-1.083,-10.45,-12.613
1.375,-3.453,5.24,-4.317,4.722,8.161,-3.053,-14.605,-13.031
1.3789,-6.675,5.646,-5.466,5.903,14.045,0.077,-15.275,-9.054
1.3828,-7.287,4.506,-5.402,5.089,11.22,-3.505,-17.845,-6.546
1.3867,-9.957,7.015,-4.332,6.777,8.179,-5.94,-15.821,-13.194
1.3906,-11.148,6.857,-7.994,5.288,7.667,-6.464,-19.041,-10.49
1.3945,-11.005,6.026,-3.43,8.077,9.272,-6.855,-19.848,-10.066
1.3984,-15.035,2.293,-4.576,7.194,8.784,-9.581,-11.658,-14.147
1.4023,-12.527,2.709,-2.864,6.116,3.893,-7.128,-14.165,-11.814
1.4062,-8.708,-0.623,-4.259,2.952,9.618,-11.649,-7.946,-9.873
1.4102,-12.576,0.376,-5.469,3.203,7.563,-7.871,-8.745,-7.169
1.4141,-11.614,-0.08,-1.115,9.026,5.084,-12.356,-3.859,-5.956
1.418,-7.422,-0.063,1.607,8.135,3.905,-14.814,-2.91,-3.557
1.4219,-3.172,-2.671,0.511,7.405,10.375,-17.678,-3.078,1.485
1.4258,-1.969,-5.599,1.843,4.892,11.405,-18.949,0.468,-0.36
1.4297,2.415,-2.802,-1.694,6.774,8.834,-18.919,0.386,4.824
1.4336,1.727,4.658,0.289,3.943,11.161,-15.84,6.825,10.17
1.4375,0.991,2.86,0.804,7.463,16.68,-12.004,5.224,10.394
1.4414,-0.298,4.761,2.017,8.339,9.013,-13.945,3.168,6.606
1.4453,3.131,12.148,-1.357,7.568,6.355,-13.366,6.858,9.223
1.4492,-1.624,13.006,-3.048,4.574,4.84,-9.438,8.804,10.672
1.4531,-5.137,10.687,-7.75,0.376,8.982,-5.288,10.979,8.182
1.457,1.49,9.197,-7.922,5.09,4.909,-2.656,9.498,6.22
1.4609,-3.666,8.625,-9.244,11.626,3.329,-1.045,13.295,9.22
1.4648,-3.303,9.141,-9.991,8.346,-1.324,1.059,8.155,9.696
1.4688,-0.897,12.322,-11.113,12.015,-0.628,0.668,3.941,3.528
1.4727,-6.184,10.345,-15.064,16.302,-5.26,1.7,6.898,5.195
1.4766,-5.286,10.617,-14.815,15.89,-3.637,-5.325,5.362,7.629
1.4805,-6.943,10.42,-16.235,21.086,-4.669,-3.251,4.647,5.661
1.4844,-7.514,4.483,-17.599,16.236,-4.877,-0.031,-0.649,0.794
1.4883,-7.689,7.466,-17.28,16.692,-9.91,-2.971,2.787,2.902
1.4922,-9.598,4.847,-14.897,20.882,-14.282,-1.351,3.463,-2.531
1.4961,-11.099,-0.489,-16.779,14.72,-14.457,-3.353,2.911,-4.988
1.5,-14.694,-1.773,-21.556,15.155,-18.791,-0.685,6.371,-6.571
1.5039,-16.596,-2.922,-19.335,14.541,-20.821,-1.669,10.061,-0.511
1.5078,-12.227,-3.77,-19.486,16.826,-15.405,-2.264,9.232,-4.125
1.5117,-13.587,-8.007,-20.839,16.429,-18.429,-7.125,9.947,-1.486
1.5156,-11.327,-10.017,-14.693,15.971,-17.746,-9.396,8.998,-0.506
1.5195,-9.443,-7.519,-13.574,12.973,-13.61,-12.698,3.744,-0.028
1.5234,-8.662,-14.575,-13.564,14.042,-9.46,-17.0,6.438,2.63
1.5273,-6.025,-12.833,-8.179,17.334,-8.176,-11.695,8.012,5.725
1.5312,-7.01,-12.935,-7.384,8.665,-3.359,-13.049,5.648,7.656
1.5352,-7.614,-15.218,-6.819,5.64,-5.362,-15.079,4.948,6.977
1.5391,-11.75,-12.913,-4.768,0.551,-5.505,-11.795,7.232,6.673
1.543,-11.897,-14.711,-4.824,-1.238,-5.189,-15.42,3.139,7.616
1.5469,-11.539,-7.456,-1.867,-3.918,-7.364,-16.746,4.687,7.502
1.5508,-10.295,-11.463,-3.918,-7.499,-1.994,-9.059,6.945,9.286
1.5547,-12.974,-7.008,-4.541,-7.914,-8.53,-11.429,10.377,11.585
1.5586,-11.828,-12.505,-4.488,-4.181,-5.311,-7.855,9.968,10.64
1.5625,-14.028,-11.166,-6.63,-4.237,-4.802,-6.967,10.27,8.331
1.5664,-13.583,-13.066,-4.417,-6.161,-6.52,-7.477,4.304,5.503
1.5703,-10.522,-12.081,-5.485,-7.959,-4.973,-7.403,2.429,8.842
1.5742,-14.536,-12.346,0.786,-2.866,0.944,-7.973,4.566,9.005
1.5781,-12.01,-10.658,-2.841,-5.321,0.263,-7.208,1.809,11.756
1.582,-12.342,-10.298,-0.371,-7.796,-3.801,-8.821,2.232,14.469
1.5859,-14.825,-12.222,0.325,-1.914,-5.02,-5.983,-0.459,13.61
1.5898,-12.174,-9.953,1.404,-0.914,-8.638,-9.367,3.737,15.627
1.5938,-8.994,-9.682,-1.802,-8.437,-6.199,-2.904,6.933,11.328
1.5977,-9.602,-3.203,0.12,-6.4,-8.949,-7.799,3.706,13.473
1.6016,-6.598,-8.545,2.597,-5.722,-12.985,-3.961,10.566,11.351
1.6055,-2.866,-6.873,1.878,-3.648,-9.743,-4.215,10.998,12.77
1.6094,-0.667,-12.044,0.718,-4.743,-10.23,-2.265,9.098,10.33
1.6133,-1.486,-11.91,1.07,-3.805,-9.953,-1.205,11.121,9.026
1.6172,4.144,-14.586,0.756,0.145,-11.648,-3.312,10.718,10.597
1.6211,5.18,-11.559,6.248,-2.421,-10.587,-0.532,12.036,12.548
1.625,6.844,-8.93,5.544,-1.105,-3.65,-1.769,14.221,13.102
1.6289,9.757,-5.174,7.159,-4.966,-5.935,-1.501,18.065,14.046
1.6328,8.777,-6.881,4.709,-5.641,-4.063,1.15,12.057,17.447
1.6367,9.499,-2.94,5.767,-1.707,-7.171,5.591,13.752,13.572
1.6406,9.787,-2.067,6.572,-3.717,-5.546,6.476,12.361,10.329
1.6445,11.773,2.4,6.203,-4.227,-10.251,4.204,11.372,8.786
1.6484,13.707,0.669,5.069,-9.162,-8.262,7.679,14.478,8.752
1.6523,7.451,5.758,0.532,-10.852,-9.898,13.011,14.8,5.97
1.6562,10.278,-0.975,-3.173,-6.231,-9.456,15.329,10.827,6.169
1.6602,6.123,-2.745,1.721,-10.497,-6.96,13.712,12.593,5.941
1.6641,7.98,-4.204,3.711,-3.203,-11.578,16.944,6.85,3.579
1.668,6.332,3.08,0.523,-1.934,-8.753,12.424,5.502,-0.937
1.6719,3.182,0.438,-2.416,-2.498,-5.908,15.705,4.721,-3.403
1.6758,8.864,-2.013,-1.427,-5.509,-7.44,13.73,0.641,-2.348
1.6797,4.996,0.319,0.665,-5.408,-4.523,10.404,-1.941,-0.3
1.6836,3.135,-1.826,2.211,-3.578,-5.686,11.329,-5.465,-1.124
1.6875,-0.502,0.159,-2.286,-5.501,-7.425,10.309,-6.559,-4.563
1.6914,-1.752,-6.876,0.908,-5.616,-6.837,10.293,-7.455,-5.636
1.6953,-0.523,-4.364,2.285,-4.241,-4.494,8.389,-8.426,-6.715
1.6992,-1.685,-5.697,3.728,-6.374,-8.555,6.026,-9.04,-12.014
1.7031,-0.224,-10.859,1.21,-11.225,-8.168,5.45,-7.264,-7.874
1.707,0.14,-7.558,-0.606,-8.08,-7.514,8.815,-9.6,-10.776
1.7109,2.397,-12.514,5.808,-8.112,-2.702,6.642,-8.752,-7.709
1.7148,0.078,-11.482,10.131,-5.812,-0.874,3.623,-6.995,-7.74
1.7188,-0.109,-7.903,11.381,-8.401,-1.334,1.19,-7.794,-11.826
1.7227,7.787,-12.316,15.353,-8.93,-0.606,-2.418,-9.544,-7.465
1.7266,7.537,-11.412,15.521,-11.725,6.295,-1.279,-6.163,-4.979
1.7305,11.785,-9.326,16.0,-11.887,11.708,3.936,-7.235,-3.465
1.7344,10.314,-6.102,20.866,-17.168,12.053,1.955,-8.212,3.213
1.7383,8.593,-6.762,20.781,-15.747,13.199,-0.348,-10.088,5.526
1.7422,9.131,-3.642,21.771,-17.139,12.326,-0.016,-4.513,0.086
1.7461,12.647,2.934,23.487,-19.537,16.222,-3.119,-4.827,1.739
1.75,13.639,3.787,16.792,-19.67,15.687,7.265,-1.013,3.071
1.7539,10.117,-0.13,15.57,-19.353,16.336,9.598,1.429,0.888
1.7578,10.212,1.747,15.154,-18.182,14.731,9.182,-4.826,0.405
1.7617,11.73,7.73,12.937,-16.569,14.251,8.3,-5.648,-0.75
1.7656,8.062,6.943,15.718,-14.861,13.298,8.565,-10.634,-0.221
1.7695,11.457,6.677,13.856,-8.932,10.608,11.18,-4.901,-0.189
1.7734,12.225,9.808,11.523,-8.598,13.885,10.111,-6.515,-0.908
1.7773,13.893,11.423,12.022,-9.356,15.045,12.452,-7.992,-0.548
1.7812,11.36,13.511,10.317,-5.235,14.917,12.259,-10.839,-1.686
1.7852,8.475,9.966,10.312,-5.698,11.352,14.565,-9.063,-6.232
1.7891,5.862,12.105,8.202,-0.105,6.007,13.243,-9.139,-3.832
1.793,6.804,15.672,7.305,0.358,4.142,13.828,-8.007,-10.983
1.7969,8.158,15.682,5.382,-0.298,3.505,8.1,-7.982,-9.198
1.8008,9.094,16.457,2.093,4.188,3.81,10.5,-5.236,-9.863
1.8047,14.039,10.979,-1.134,-0.23,2.128,12.905,-4.841,-13.946
1.8086,12.485,11.816,-0.219,5.522,-1.163,15.525,-1.234,-13.187
1.8125,8.486,11.567,-1.046,10.725,-2.129,15.491,-2.627,-8.263
1.8164,11.895,9.79,4.457,10.009,-3.886,8.852,-7.287,-12.987
1.8203,11.969,9.37,5.234,8.133,-4.317,5.535,-2.962,-14.75
1.8242,13.942,9.281,4.501,5.476,4.123,1.406,-3.397,-9.228
1.8281,15.702,7.84,3.854,4.486,11.245,6.659,-4.553,-10.601
1.832,15.814,9.287,2.531,6.127,11.335,3.892,-4.767,-11.871
1.8359,11.787,12.365,0.065,5.271,5.839,10.756,-2.484,-7.344
1.8398,12.042,10.812,2.222,4.219,7.775,2.91,-9.902,-11.685
1.8438,5.502,10.822,2.48,3.087,4.582,8.359,-4.646,-10.869
1.8477,6.276,12.565,1.366,1.231,5.401,6.141,-7.789,-14.151
1.8516,10.043,13.577,-0.373,0.758,6.111,3.727,-3.896,-11.349
1.8555,3.407,10.841,-1.663,-2.901,7.932,7.224,-5.568,-12.397
1.8594,3.441,10.634,-6.083,-0.651,7.292,8.155,-9.308,-18.301
1.8633,-1.517,9.398,-5.924,2.04,7.502,4.542,-10.149,-13.102
1.8672,-2.003,9.745,-0.734,3.197,8.513,4.128,-9.966,-14.979
1.8711,-3.822,10.874,-1.349,7.766,7.736,1.642,-14.783,-11.232
1.875,-4.334,9.778,-3.691,4.757,10.08,-0.442,-16.966,-12.021
1.8789,-6.508,5.066,-3.709,1.565,8.763,-2.612,-17.617,-9.836
1.8828,-6.131,4.051,-4.164,6.557,7.95,-5.837,-15.586,-12.036
1.8867,-11.355,5.066,-3.76,7.637,6.343,-5.046,-13.972,-12.587
1.8906,-10.584,4.353,-2.339,6.302,9.218,-6.326,-22.01,-12.081
1.8945,-10.834,3.195,2.054,3.123,6.424,-11.943,-11.306,-13.397
1.8984,-12.185,4.111,-3.107,7.667,3.173,-8.554,-14.303,-9.53
1.9023,-12.85,2.383,-3.107,1.216,6.699,-9.125,-10.506,-10.97
1.9062,-10.763,-0.475,-8.336,5.089,3.851,-11.7,-9.697,-11.15
1.9102,-11.706,-1.995,-5.238,5.511,8.951,-10.88,-6.991,-8.558
1.9141,-8.098,-0.08,0.163,7.674,4.232,-12.962,-5.727,-3.313
1.918,-11.489,-1.777,0.965,10.461,7.651,-10.857,-7.534,-3.495
1.9219,-5.532,3.783,-6.73,7.871,10.445,-15.852,-5.748,-0.632
1.9258,-5.973,0.221,4.177,5.042,8.542,-14.421,0.345,5.552
1.9297,-3.233,0.152,6.593,8.135,11.901,-15.821,-2.733,4.942
1.9336,2.741,1.823,-1.522,4.852,12.732,-18.062,3.238,4.359
1.9375,1.097,4.176,5.327,6.522,10.658,-11.835,2.991,7.583
1.9414,-2.845,7.133,-3.675,2.995,9.702,-13.339,3.048,9.207
1.9453,-4.529,13.016,2.41,2.239,5.179,-10.941,10.663,7.605
1.9492,-7.143,8.785,-2.038,3.26,7.965,-9.726,7.2,4.898
1.9531,-2.217,12.356,-9.999,3.877,4.466,-4.373,9.219,10.312
1.957,3.123,10.199,-7.372,1.291,3.912,0.166,12.438,8.563
1.9609,-1.88,5.747,-7.793,8.341,2.354,1.078,10.985,8.248
1.9648,-4.638,10.228,-10.068,8.444,-0.482,2.166,10.939,7.089
1.9688,-2.586,11.657,-9.968,14.693,-2.438,1.625,9.303,2.703
1.9727,-6.102,7.786,-12.805,12.771,-2.279,-6.402,8.056,5.722
1.9766,-3.377,9.147,-17.298,12.409,-2.585,-4.462,6.626,7.264
1.9805,-3.542,4.631,-14.037,16.277,-2.253,-5.156,4.966,7.711
1.9844,-6.098,4.305,-13.293,15.869,-7.71,-0.164,6.844,5.731
1.9883,-6.986,8.053,-15.17,21.209,-10.22,-3.449,4.265,3.041
1.9922,-9.957,4.503,-21.724,18.435,-11.166,-4.051,2.819,-4.048
1.9961,-10.315,2.326,-21.433,16.809,-15.566,-4.2,7.139,-2.477
2.0,-13.245,2.943,-21.272,16.732,-18.108,-3.078,5.353,-5.029
2.0039,-10.18,-1.931,-23.878,12.662,-15.192,-6.725,9.459,-0.327
2.0078,-9.078,-5.774,-20.678,12.175,-17.48,-6.904,10.652,-0.195
2.0117,-14.584,-6.756,-18.44,16.017,-20.095,-6.298,10.47,-4.054
2.0156,-14.021,-12.709,-19.251,12.858,-16.222,-6.803,8.163,-1.756
2.0195,-8.175,-13.231,-11.699,11.578,-12.409,-12.138,5.781,0.145
2.0234,-9.321,-11.729,-9.542,13.286,-15.514,-15.572,5.432,3.838
2.0273,-4.737,-10.84,-10.185,10.332,-7.2,-18.935,5.533,1.612
2.0312,-8.354,-11.067,-8.163,4.775,-12.29,-12.634,2.186,2.961
2.0352,-5.764,-15.075,-10.263,4.203,-7.168,-15.861,7.967,8.573
2.0391,-10.077,-11.095,-5.358,1.339,-2.429,-16.699,6.66,3.309
2.043,-11.021,-13.08,-3.371,3.59,-6.327,-17.59,7.754,8.144
2.0469,-8.803,-6.624,-2.749,-1.679,-4.613,-15.947,6.629,8.939
2.0508,-12.66,-12.368,-3.074,-7.272,-2.381,-12.997,9.609,10.899
2.0547,-14.069,-8.414,-4.385,-6.73,-7.072,-9.35,6.721,8.136
2.0586,-13.767,-13.753,-5.731,-10.449,-3.995,-9.881,7.192,10.275
2.0625,-12.592,-9.195,-3.749,-8.076,-4.719,-7.007,3.253,11.255
2.0664,-16.479,-11.777,-0.624,-5.633,-1.216,-8.741,5.88,7.513
2.0703,-10.906,-14.052,-1.256,-4.638,-6.541,-4.656,2.835,12.211
2.0742,-11.627,-12.223,0.292,-5.736,-3.498,-12.544,1.711,12.243
2.0781,-7.121,-9.333,-0.789,-4.727,-3.802,-7.984,4.076,12.005
2.082,-14.166,-8.829,-1.93,-4.186,-4.499,-6.891,2.588,14.267
2.0859,-11.731,-10.795,0.629,-3.666,-1.826,-8.633,0.389,13.162
2.0898,-14.19,-9.614,-0.911,-3.558,-6.03,-6.165,8.245,13.471
2.0938,-12.145,-6.945,1.378,-4.437,-8.72,-4.489,3.777,9.641
2.0977,-8.537,-7.539,0.307,-4.287,-9.485,-4.801,3.598,10.109
2.1016,-7.352,-10.953,-1.352,-4.68,-10.179,-0.499,7.183,8.679
2.1055,-5.552,-11.589,-2.207,-4.72,-10.893,-5.933,10.77,8.723
2.1094,-3.641,-11.183,-2.272,-6.069,-13.637,-2.489,12.279,11.391
2.1133,-0.941,-9.998,-2.896,-4.138,-12.397,1.719,15.515,9.382
2.1172,-0.58,-8.712,3.532,-0.512,-12.22,-0.43,12.472,13.096
2.1211,6.409,-9.106,5.274,1.459,-11.357,-1.74,16.38,13.756
2.125,9.844,-8.776,7.56,-1.884,-7.312,0.243,12.517,12.828
2.1289,11.715,-6.848,4.975,-3.566,-5.469,-4.408,15.22,16.476
2.1328,12.851,-8.659,9.766,-2.488,-6.615,3.008,16.963,15.074
2.1367,11.868,-6.014,5.353,-5.492,-6.38,5.281,17.112,12.375
2.1406,14.574,-4.997,4.494,-1.604,-2.609,3.341,16.777,12.202
2.1445,9.991,-3.352,3.723,-5.698,-3.099,11.74,13.364,10.929
2.1484,9.651,1.454,0.614,-9.436,-9.446,9.433,14.276,10.264
2.1523,8.708,1.348,4.756,-9.596,-9.31,7.676,9.838,8.25
2.1562,7.428,1.371,2.256,-10.006,-10.365,15.385,14.063,8.441
2.1602,5.715,-0.12,-0.327,-4.828,-7.347,14.373,14.74,2.778
2.1641,5.253,-1.298,-3.059,-6.111,-11.15,17.776,11.055,1.677
2.168,6.453,-0.469,3.251,-4.265,-9.71,15.301,5.306,3.673
2.1719,7.512,-1.286,-0.472,-3.071,-4.948,11.902,5.58,-4.657
2.1758,7.109,-0.519,-0.418,-5.615,-7.406,15.676,-1.053,-2.101
2.1797,4.675,-3.631,2.521,-3.387,-5.098,14.547,-3.729,-3.754
2.1836,6.003,-2.462,0.847,-2.609,-5.707,10.732,-5.344,-3.293
2.1875,3.117,-2.436,4.542,-6.019,-8.835,11.098,-8.937,-6.137
2.1914,-0.763,-5.12,1.654,-3.187,-6.219,11.007,-7.337,-6.834
2.1953,-2.685,-3.73,1.099,-5.622,-9.873,8.069,-8.777,-9.662
2.1992,-0.209,-6.019,0.776,-7.413,-4.6,7.648,-7.622,-13.659
2.2031,-0.506,-7.965,-1.796,-9.055,-7.425,8.312,-8.527,-12.023
2.207,-3.48,-11.928,1.964,-8.914,-6.434,5.585,-7.083,-10.255
2.2109,-0.38,-9.442,6.855,-6.346,-6.868,1.604,-11.64,-8.27
2.2148,1.287,-10.83,9.079,-11.191,-4.981,3.89,-7.658,-4.291
2.2188,1.045,-11.548,11.587,-10.223,-1.114,-3.329,-9.28,-6.467
2.2227,6.033,-7.665,12.553,-9.714,-1.196,-3.167,-11.932,-7.557
2.2266,5.29,-10.949,16.924,-11.717,7.178,-5.19,-9.331,-2.725
2.2305,12.228,-3.5,19.718,-12.928,9.596,-4.438,-8.766,0.461
2.2344,12.043,-8.532,19.675,-9.087,13.767,0.458,-4.217,0.416
2.2383,8.35,-5.118,20.339,-14.276,13.684,-0.216,-9.771,2.329
2.2422,9.16,-3.175,19.196,-14.799,11.957,0.514,-6.727,-3.942
2.2461,3.925,1.564,22.217,-19.663,13.276,-0.03,-8.549,1.137
2.25,7.172,4.701,12.638,-22.543,14.531,3.816,-5.725,-0.851
2.2539,9.391,3.732,17.44,-21.25,18.135,8.777,-2.351,0.252
2.2578,7.747,7.751,19.979,-17.542,12.768,10.165,-2.675,3.388
2.2617,11.006,5.206,11.049,-15.402,11.763,12.809,-3.092,-2.782
2.2656,13.748,6.68,13.669,-12.583,10.124,12.806,-4.242,-0.751
2.2695,8.437,6.383,14.215,-11.555,9.5,9.787,-7.725,-0.351
2.2734,10.601,10.985,12.583,-10.045,13.753,6.586,-6.06,-1.491
2.2773,13.736,11.129,13.963,-7.679,13.868,9.556,-8.798,-4.632
2.2812,16.249,10.823,10.921,-3.399,15.172,11.89,-8.582,1.118
2.2852,9.209,11.13,8.747,-0.53,12.602,11.078,-8.162,-3.469
2.2891,10.506,19.13,9.01,-2.188,12.731,10.394,-9.055,-6.683
2.293,12.681,14.599,6.416,2.279,5.617,12.31,-8.284,-9.035
2.2969,5.772,12.967,11.101,-0.45,3.854,17.14,-7.894,-11.201
2.3008,7.118,13.917,2.772,1.957,0.831,11.993,-5.626,-13.755
2.3047,9.317,13.335,0.689,1.698,3.766,13.628,-5.243,-11.335
2.3086,9.232,12.195,-4.218,7.241,1.321,10.742,-5.734,-13.166
2.3125,12.035,10.493,-1.466,5.516,1.433,14.217,-6.745,-11.164
2.3164,11.683,10.169,3.372,8.211,-1.967,10.93,-8.254,-11.793
2.3203,9.233,7.803,-0.122,9.409,2.625,8.37,-2.215,-9.059
2.3242,15.542,10.153,-1.08,5.996,4.797,8.036,-10.274,-11.253
2.3281,14.177,7.757,3.162,7.064,6.883,4.077,-3.097,-10.662
2.332,17.124,8.192,5.448,6.417,6.375,4.387,-6.97,-10.969
2.3359,11.211,8.01,2.672,5.617,10.174,8.259,-3.428,-3.996
2.3398,8.641,8.674,1.982,4.778,11.576,5.654,-11.041,-8.527
2.3438,8.868,14.73,-1.439,5.964,5.29,-0.29,-7.599,-12.896
2.3477,7.789,14.927,1.811,0.238,9.466,5.554,-3.929,-9.14
2.3516,5.744,15.128,0.011,0.921,2.751,4.62,-4.66,-10.051
2.3555,-0.41,11.667,-7.069,0.203,9.72,8.556,-6.484,-15.467
2.3594,1.651,11.217,-2.43,-2.08,3.917,7.429,-10.708,-14.629
2.3633,-3.768,4.83,-3.027,3.398,5.947,1.512,-11.801,-14.131
2.3672,-2.694,9.693,-1.371,0.761,4.561,2.99,-9.231,-16.54
2.3711,-6.556,8.382,-1.724,5.349,7.979,0.431,-15.059,-14.258
2.375,-3.101,9.04,-1.602,3.278,11.685,-0.908,-15.867,-11.388
2.3789,-6.562,7.695,-2.453,4.809,7.236,-1.428,-15.794,-14.095
2.3828,-9.557,3.884,-2.221,3.132,9.92,-0.495,-19.476,-10.029
2.3867,-8.224,2.221,-7.46,6.79,8.314,-4.065,-16.659,-8.67
2.3906,-11.432,3.831,-6.287,8.407,11.082,-6.632,-18.568,-11.229
2.3945,-14.233,6.602,-4.488,3.936,7.963,-5.895,-16.32,-12.827
2.3984,-10.015,6.374,-3.746,2.936,4.561,-4.407,-15.867,-13.542
2.4023,-13.159,0.596,-3.656,4.265,5.883,-7.101,-14.813,-9.002
2.4062,-11.607,-1.093,-4.314,4.727,9.461,-8.695,-9.679,-11.055
2.4102,-10.551,-2.81,-2.034,0.242,7.059,-9.349,-5.703,-6.418
2.4141,-11.209,-3.151,0.002,10.503,3.553,-11.826,-5.324,-5.192
2.418,-6.884,-4.899,-1.584,8.104,5.754,-14.68,-5.374,-0.909
2.4219,-5.927,-4.005,2.525,8.141,7.797,-11.962,-2.34,-1.356
2.4258,-2.815,-1.764,1.133,5.872,9.376,-17.991,-2.432,2.436
2.4297,2.482,0.904,2.38,2.212,8.329,-13.276,0.484,4.288
2.4336,-2.068,-0.547,3.114,7.463,10.27,-14.566,1.397,9.704
2.4375,-5.519,3.431,-4.529,5.064,13.206,-16.141,5.645,8.441
2.4414,1.815,8.379,6.691,6.669,8.218,-12.399,5.553,6.999
2.4453,3.574,6.259,1.667,3.868,7.632,-11.363,5.605,6.57
2.4492,-2.024,10.063,-3.212,3.633,7.138,-6.465,6.131,9.093
2.4531,-5.004,12.687,-1.444,1.59,9.874,-4.336,13.689,6.074
2.457,-2.339,8.947,-8.959,6.424,3.231,-4.009,11.324,6.207
2.4609,-3.323,7.742,-9.83,4.97,2.702,2.155,12.666,9.263
2.4648,-3.898,11.013,-11.77,14.574,-3.016,1.174,15.631,5.918
2.4688,-5.743,8.509,-7.834,16.609,-3.654,1.341,10.595,7.211
2.4727,-1.821,11.71,-12.191,16.74,-3.538,-1.837,10.809,4.398
2.4766,-1.733,10.022,-13.276,17.207,-5.51,-2.146,5.798,5.446
2.4805,-6.729,7.396,-13.013,15.956,-5.651,-0.132,8.512,5.743
2.4844,-4.527,7.782,-15.623,20.035,-5.866,-2.583,5.611,7.063
2.4883,-4.463,6.597,-17.538,18.479,-12.148,-1.803,5.221,4.627
2.4922,-10.303,7.478,-15.528,15.327,-13.03,-3.424,7.852,1.733
2.4961,-12.326,3.447,-13.326,20.119,-13.167,-6.689,3.622,-3.704
2.5,-12.153,2.566,-18.946,17.806,-17.087,-3.589,5.634,-5.089
2.5039,-10.745,-1.009,-20.459,14.609,-13.988,-4.637,5.469,-1.37
2.5078,-15.797,-3.424,-20.425,12.303,-16.922,-4.871,9.976,0.298
2.5117,-12.315,-10.285,-16.606,14.028,-18.01,-5.573,6.773,0.172
2.5156,-13.026,-8.351,-17.589,11.415,-21.239,-6.656,8.826,-1.638
2.5195,-7.151,-10.488,-13.81,15.668,-16.019,-13.785,2.482,1.104
2.5234,-9.286,-14.671,-13.819,8.405,-11.511,-14.661,6.657,3.528
2.5273,-4.209,-10.362,-11.457,9.856,-5.754,-16.168,4.734,5.261
2.5312,-9.676,-9.075,-8.854,5.595,-6.08,-16.2,7.981,7.765
2.5352,-7.499,-11.741,-6.476,2.587,-4.115,-15.579,6.502,8.693
2.5391,-9.702,-10.116,-1.155,3.623,-8.528,-14.798,5.101,6.796
2.543,-13.276,-11.341,-2.314,-0.631,-5.924,-12.987,5.33,6.454
2.5469,-11.578,-13.599,-4.911,-1.814,-2.351,-12.428,5.163,6.351
2.5508,-9.511,-13.788,-5.288,-8.965,-5.682,-13.188,9.954,5.229
2.5547,-12.834,-10.561,-2.124,-9.397,-1.708,-6.284,7.379,9.667
2.5586,-16.254,-13.624,-2.949,-12.512,-2.672,-5.575,8.996,9.871
2.5625,-13.532,-15.051,-4.265,-11.1,-4.298,-9.181,8.896,11.476
2.5664,-15.153,-13.085,-3.514,-2.247,-5.598,-5.799,9.375,12.386
2.5703,-12.866,-10.788,1.185,-1.376,-6.042,-8.446,4.361,13.029
2.5742,-10.713,-14.084,-2.33,-5.356,0.816,-9.448,3.033,14.531
2.5781,-12.828,-11.794,0.367,-6.87,-0.681,-7.591,3.954,11.702
2.582,-12.609,-7.914,3.909,-4.94,-1.748,-7.291,-0.708,11.121
2.5859,-9.194,-12.804,-0.006,-1.591,-4.906,-5.482,0.858,15.303
2.5898,-11.863,-7.964,-1.352,-3.995,-6.008,-5.981,2.404,14.675
2.5938,-15.622,-9.431,1.426,-3.11,-7.279,-6.703,2.425,13.474
2.5977,-7.463,-6.711,-0.69,-4.777,-7.65,-9.046,2.563,10.625
2.6016,-6.449,-6.171,-3.532,-6.639,-7.583,-2.214,10.238,5.927
2.6055,-6.472,-8.481,-0.149,-6.169,-11.51,-2.325,11.636,11.33
2.6094,-5.956,-9.835,0.979,-3.125,-14.042,0.751,12.91,12.159
2.6133,0.324,-14.732,-0.226,-4.094,-11.711,-0.268,11.523,13.679
2.6172,2.136,-9.716,2.012,-0.406,-14.996,-2.949,12.789,14.354
2.6211,9.76,-12.37,2.888,-2.428,-10.489,-0.775,13.698,14.391
2.625,9.36,-8.832,5.561,-1.934,-8.641,-1.813,12.852,13.184
2.6289,11.721,-7.829,4.913,0.025,-4.965,-0.248,15.257,13.99
2.6328,11.404,-6.355,3.953,-3.273,-1.537,1.141,13.327,17.682
2.6367,12.909,-5.034,9.897,-1.378,-9.981,6.519,14.917,13.998
2.6406,11.754,-5.036,7.177,-7.806,-2.377,3.232,16.438,16.347
2.6445,12.669,-3.555,6.855,-7.012,-7.806,5.836,16.372,7.621
2.6484,9.223,2.532,5.848,-8.042,-6.642,6.566,16.942,10.355
2.6523,9.344,1.349,3.233,-5.415,-10.311,13.515,15.368,8.59
2.6562,8.534,2.294,-1.313,-12.872,-6.253,13.458,14.518,6.212
2.6602,9.786,-1.302,-0.984,-7.644,-9.378,14.873,11.659,2.89
2.6641,10.027,-4.594,-1.805,-2.793,-10.476,14.412,5.646,-1.693
2.668,5.677,0.35,0.505,-6.145,-14.064,14.331,2.789,-0.678
2.6719,5.994,-1.941,0.915,-4.644,-8.795,10.596,1.846,-1.823
2.6758,7.635,-0.661,-0.646,-3.47,-5.694,8.184,-0.502,1.027
2.6797,5.715,-3.473,-3.012,-3.406,-6.983,13.583,0.528,-3.177
2.6836,6.107,0.087,-0.178,-0.027,-4.4,8.16,-1.778,-1.996
2.6875,-2.866,-5.526,-0.269,-2.014,-5.392,13.11,-8.065,-7.853
2.6914,-2.097,-4.456,-2.624,-1.037,-9.62,13.09,-6.945,-7.078
2.6953,-2.944,-3.619,2.908,-6.251,-4.983,8.469,-10.308,-14.649
2.6992,-5.947,-6.956,3.93,-9.154,-7.189,10.916,-7.476,-6.857
2.7031,-2.809,-6.251,6.954,-9.577,-6.151,8.19,-6.087,-11.129
2.707,-2.414,-6.455,1.739,-11.75,-5.28,10.915,-4.482,-15.844
2.7109,-0.646,-12.954,3.488,-8.054,-4.553,5.157,-8.269,-11.184
2.7148,2.989,-12.171,5.663,-9.604,-8.393,-1.318,-6.382,-10.909
2.7188,2.355,-18.122,11.964,-10.883,-0.631,0.489,-13.224,-9.184
2.7227,3.591,-11.687,14.947,-10.05,0.938,2.235,-7.139,-6.262
2.7266,8.086,-11.196,14.848,-14.966,10.897,-0.577,-9.171,-3.862
2.7305,11.654,-11.2,17.342,-12.305,13.784,-2.172,-8.258,-1.534
2.7344,7.595,-5.914,14.856,-15.55,13.891,0.263,-11.82,-0.863
2.7383,7.034,-6.281,21.859,-13.186,12.361,2.171,-8.426,3.032
2.7422,9.55,-2.735,19.248,-17.846,11.356,0.859,-4.679,3.003
2.7461,8.302,0.065,20.413,-17.785,12.878,7.854,-7.221,-0.479
2.75,10.78,-0.804,16.048,-20.198,18.886,4.092,-3.183,0.067
2.7539,9.951,1.696,15.509,-19.134,13.779,10.029,-2.836,-1.782
2.7578,11.295,6.119,14.279,-18.746,9.702,11.793,-0.127,0.598
2.7617,7.508,0.507,14.043,-19.542,15.262,9.764,-2.697,0.201
2.7656,9.729,4.606,15.112,-11.372,15.382,10.027,-6.772,-1.735
2.7695,10.369,7.402,17.109,-11.302,15.783,12.328,-6.625,-1.146
2.7734,9.845,13.636,14.973,-7.719,15.216,10.58,-4.625,-1.214
2.7773,10.138,12.934,13.815,-5.939,15.865,11.745,-7.192,-3.512
2.7812,14.398,10.925,12.868,-6.394,12.712,8.814,-8.62,0.803
2.7852,10.952,15.292,9.582,-4.041,6.367,13.943,-4.373,-3.462
2.7891,7.963,12.306,7.342,1.135,7.993,13.078,-7.19,-2.277
2.793,8.846,17.144,8.401,0.148,7.008,12.043,-7.939,-7.573
2.7969,11.331,13.163,6.888,2.724,4.104,13.001,-7.893,-6.495
2.8008,5.119,17.46,3.766,0.662,3.07,12.151,-5.103,-9.024
2.8047,7.171,12.626,-2.611,4.129,0.444,12.45,-3.067,-11.21
2.8086,8.427,9.045,-2.48,4.956,-0.919,12.882,-7.963,-13.418
2.8125,13.332,8.949,-0.929,6.928,3.807,10.802,-3.1,-13.909
2.8164,11.764,9.371,2.637,7.106,4.06,13.542,-5.234,-11.762
2.8203,14.318,8.103,2.507,8.661,1.917,8.582,-6.74,-12.024
2.8242,12.231,10.58,5.509,10.13,4.95,3.379,-6.24,-12.007
2.8281,13.093,8.344,5.728,7.101,4.643,9.005,-8.596,-7.389
2.832,15.471,10.672,5.105,8.012,9.027,4.126,-8.938,-7.952
2.8359,12.582,10.73,4.999,6.737,11.315,4.899,-3.308,-6.705
2.8398,11.012,10.929,0.581,5.907,4.417,6.184,-5.711,-11.803
2.8438,7.411,11.719,3.243,7.187,8.439,0.208,-11.954,-9.512
2.8477,6.82,13.853,-0.308,3.839,9.103,4.17,-7.99,-11.524
2.8516,5.164,14.275,-4.61,-0.053,9.562,4.637,-4.326,-10.369
2.8555,4.516,15.712,-4.081,0.003,11.669,7.17,-6.369,-10.809
2.8594,2.189,11.542,-2.049,-0.69,11.729,7.352,-4.332,-13.292
2.8633,-4.94,10.304,-3.637,2.013,6.53,4.838,-7.057,-14.197
2.8672,-7.659,14.144,0.4,4.207,8.533,2.205,-14.723,-10.833
2.8711,-1.705,9.059,-2.537,5.794,8.578,2.14,-14.65,-14.646
2.875,-1.618,8.755,1.986,5.791,8.743,-1.032,-16.619,-11.315
2.8789,-6.99,8.343,-3.139,2.574,11.493,-2.496,-19.14,-12.111
2.8828,-10.712,3.84,-3.913,7.675,11.982,-3.191,-19.779,-14.338
2.8867,-9.454,4.33,-6.382,6.368,9.775,-1.221,-19.085,-13.461
2.8906,-10.053,4.243,-1.063,4.579,6.158,-6.333,-19.01,-11.218
2.8945,-9.41,6.767,-4.02,8.222,6.173,-9.22,-16.341,-11.273
2.8984,-11.885,4.646,-4.781,7.077,6.004,-12.71,-12.622,-11.387
2.9023,-13.021,3.609,-1.869,3.883,5.14,-11.8,-10.639,-8.371
2.9062,-13.458,3.044,-2.647,5.185,6.976,-10.041,-7.323,-7.918
2.9102,-11.065,0.363,-2.004,6.646,6.467,-10.43,-7.518,-8.454
2.9141,-10.568,-2.76,-3.019,9.264,7.348,-13.45,-4.906,-4.055
2.918,-9.857,-3.515,0.059,8.503,4.573,-14.015,-5.733,-2.821
2.9219,-0.763,1.11,1.929,4.092,7.112,-17.429,-5.019,-1.342
2.9258,1.579,1.428,4.394,10.179,13.561,-18.322,1.77,4.377
2.9297,2.029,-2.481,5.864,8.054,11.42,-14.361,-4.289,6.93
2.9336,-1.828,1.188,3.207,5.095,11.686,-11.575,-1.39,7.62
2.9375,1.017,3.994,6.238,4.136,10.077,-15.394,4.497,8.933
2.9414,-0.127,7.82,3.663,6.591,11.246,-11.535,4.439,11.55
2.9453,-0.639,10.683,0.064,3.749,10.182,-14.079,3.845,10.865
2.9492,1.286,11.043,-0.363,3.817,9.083,-10.569,7.0,8.395
2.9531,0.141,11.808,-1.887,4.627,5.491,-5.696,9.631,8.395
2.957,-0.238,9.912,-4.267,3.563,1.468,0.305,14.596,5.37
2.9609,-1.476,7.541,-7.721,5.115,4.364,-2.345,14.946,10.909
2.9648,-2.837,8.164,-10.745,10.855,-0.107,-2.638,14.205,8.323
2.9688,-7.084,9.16,-11.571,11.066,-4.049,-1.758,5.814,6.804
2.9727,-2.813,9.431,-10.829,13.767,-0.716,-2.236,4.852,0.567
2.9766,-3.895,5.393,-10.227,11.969,-5.033,-3.645,4.003,5.53
2.9805,-6.3,7.287,-14.553,15.621,-2.422,2.433,8.948,5.176
2.9844,-2.562,6.935,-15.884,19.132,-4.686,-1.959,6.392,5.654
2.9883,-5.11,5.394,-17.327,19.883,-12.391,-1.836,4.649,1.113
2.9922,-7.928,4.942,-18.404,16.857,-11.867,-3.876,4.27,-1.037
2.9961,-11.141,5.519,-18.727,14.776,-13.02,-2.887,4.066,-1.208
3.0,-9.167,0.326,-19.31,15.58,-10.208,-1.374,3.354,-4.663
3.0039,-11.952,-4.142,-17.256,15.794,-17.663,-0.427,8.302,-4.04
3.0078,-11.931,-5.528,-21.246,15.564,-14.203,-5.911,7.826,-2.069
3.0117,-14.83,-6.706,-19.121,14.176,-17.645,-4.099,5.494,0.524
3.0156,-11.452,-7.01,-18.121,15.653,-19.706,-8.101,7.929,-0.047
3.0195,-10.726,-9.856,-11.82,16.783,-15.512,-10.138,4.93,1.799
3.0234,-11.543,-14.973,-8.011,12.022,-12.249,-14.172,6.015,2.163
3.0273,-7.647,-13.243,-5.84,6.016,-11.363,-15.012,5.772,7.953
3.0312,-7.628,-13.03,-7.411,7.689,-6.591,-12.668,8.303,3.898
3.0352,-5.079,-13.39,-5.215,9.529,-4.452,-12.48,6.97,12.541
3.0391,-8.552,-11.891,-5.0,0.572,-5.633,-11.273,4.404,12.676
3.043,-11.515,-13.345,-2.33,0.096,-6.754,-13.762,6.747,8.74
3.0469,-11.435,-10.146,-2.459,-3.943,-5.09,-13.283,7.573,9.419
3.0508,-11.848,-9.26,-3.715,-6.238,-3.916,-15.994,9.302,8.351
3.0547,-12.592,-9.419,-4.598,-7.494,-3.204,-12.094,11.548,8.962
3.0586,-15.035,-14.052,-4.298,-5.457,-1.919,-8.252,8.298,8.731
3.0625,-13.799,-13.912,-4.91,-6.561,-4.304,-9.581,9.541,9.854
3.0664,-14.84,-18.367,-3.113,-3.288,-7.746,-6.619,2.699,10.977
3.0703,-14.682,-13.263,2.35,-5.778,-5.194,-11.72,4.14,11.22
3.0742,-9.527,-12.227,5.078,-6.241,-2.403,-10.138,2.969,15.667
3.0781,-8.634,-12.935,-2.825,-6.561,0.303,-9.231,6.302,13.417
3.082,-12.951,-10.603,-3.155,-7.977,0.166,-4.83,3.126,11.007
3.0859,-10.403,-10.766,-2.331,-2.787,-0.531,-7.788,4.471,16.73
3.0898,-8.826,-14.222,-0.007,1.142,-5.822,-5.451,-0.368,9.469
3.0938,-8.374,-8.031,2.397,-2.668,-6.082,-5.637,3.147,9.244
3.0977,-6.981,-9.659,1.433,-3.378,-11.358,-3.188,4.072,10.198
3.1016,-6.916,-7.394,-0.4,-6.327,-8.192,-1.567,13.473,10.755
3.1055,-6.735,-12.527,-0.493,-5.605,-12.096,-1.645,9.783,7.708
3.1094,-5.49,-11.593,-2.64,-1.742,-11.233,-4.197,12.776,9.555
3.1133,-0.658,-12.995,-0.093,1.877,-5.819,-1.695,13.164,8.214
3.1172,2.196,-11.337,2.726,1.667,-10.894,-2.294,9.452,12.739
3.1211,7.57,-10.415,1.643,0.126,-11.569,-2.249,11.617,14.939
3.125,10.719,-9.861,3.538,-2.119,-6.807,-3.698,14.191,11.915
3.1289,10.681,-11.418,3.795,-2.323,-6.983,1.707,14.539,18.04
3.1328,9.25,-10.28,7.503,-4.443,-7.423,1.444,10.318,18.475
3.1367,10.637,-6.876,6.603,-6.114,-1.886,1.311,13.588,14.265
3.1406,10.938,-3.365,7.466,-6.476,-4.792,3.742,16.194,9.431
3.1445,9.761,-2.071,2.031,-5.972,-6.648,10.338,15.084,8.888
3.1484,9.11,2.038,1.114,-8.681,-8.121,10.369,16.723,8.03
3.1523,10.721,0.419,3.017,-12.201,-8.103,14.159,12.825,11.035
3.1562,8.484,-1.935,-6.044,-9.027,-5.161,12.54,17.016,6.389
3.1602,6.948,-1.769,0.92,-8.088,-8.848,14.436,12.468,2.726
3.1641,7.653,-1.332,-4.914,-8.052,-16.519,14.083,12.445,2.726
3.168,5.79,-0.933,1.315,-5.316,-5.348,14.574,5.485,-2.206
3.1719,7.332,2.556,-1.546,-4.86,-8.576,12.75,-1.913,0.234
3.1758,7.554,-2.683,2.217,-5.367,-6.698,11.692,1.414,-3.152
3.1797,3.927,-2.326,6.063,-1.921,-4.337,11.94,-3.184,-3.276
3.1836,3.24,-2.349,-5.017,-6.964,-5.817,10.799,-5.16,-2.151
3.1875,4.513,-3.82,1.531,-6.882,-6.164,11.043,-9.598,-1.768
3.1914,-2.768,-4.782,-2.46,-3.686,-9.185,12.2,-5.337,-3.643
3.1953,-5.612,-6.932,2.746,-5.339,-10.633,5.771,-10.396,-12.253
3.1992,-5.03,-5.794,1.586,-6.865,-6.72,9.01,-5.692,-12.241
3.2031,-0.824,-9.059,2.157,-10.204,-3.387,10.999,-8.561,-9.816
3.207,-0.522,-13.132,0.698,-11.268,-6.774,7.351,-8.822,-7.917
3.2109,-0.479,-13.565,6.126,-9.036,-6.147,5.012,-4.644,-14.077
3.2148,3.192,-15.056,4.985,-9.715,-0.69,5.261,-8.557,-8.983
3.2188,-2.501,-11.455,14.03,-6.437,-1.175,-1.319,-9.605,-8.847
3.2227,6.445,-10.407,13.724,-11.696,2.845,-1.226,-12.294,-9.38
3.2266,11.323,-12.378,13.665,-12.785,6.898,-3.727,-10.036,-5.211
3.2305,7.3,-10.084,20.882,-8.896,10.482,-4.881,-7.393,-1.037
3.2344,8.788,-11.793,18.679,-14.983,9.039,-0.698,-10.344,1.572
3.2383,7.35,-6.617,23.821,-14.392,11.76,-2.298,-8.727,3.405
3.2422,6.644,-1.582,23.233,-15.768,13.833,1.007,-8.231,1.31
3.2461,8.093,2.469,18.886,-17.586,14.64,4.831,-6.235,1.926
3.25,12.34,1.604,18.732,-19.978,17.317,8.836,-1.65,0.155
3.2539,13.653,6.063,16.916,-20.234,18.842,8.211,-3.505,-0.939
3.2578,9.219,1.166,17.891,-18.765,17.438,12.308,-3.633,0.089
3.2617,13.388,2.232,14.941,-17.367,15.031,11.961,2.413,1.132
3.2656,9.825,7.558,14.505,-12.738,12.083,10.11,-5.774,0.769
3.2695,14.298,11.543,13.831,-7.069,11.218,6.442,-7.119,-2.234
3.2734,12.09,11.135,13.407,-6.876,13.175,13.543,-8.544,-3.69
3.2773,13.527,11.316,14.5,-6.711,14.633,8.971,-8.741,-0.732
3.2812,13.757,7.649,9.983,-3.136,14.25,14.851,-8.231,-0.627
3.2852,18.011,8.638,7.652,-3.95,11.766,13.705,-7.043,-0.581
3.2891,11.71,14.045,6.286,-0.697,7.695,10.552,-8.701,-6.985
3.293,7.624,14.41,5.275,2.65,7.339,12.795,-7.418,-9.75
3.2969,11.013,13.669,1.937,3.825,6.897,16.545,-6.44,-8.925
3.3008,8.956,15.445,0.968,-0.523,5.192,16.04,-6.147,-12.19
3.3047,9.185,13.668,3.295,1.115,2.309,12.608,-3.84,-12.564
3.3086,12.09,12.991,-1.21,8.472,-0.583,11.942,-1.379,-9.463
3.3125,10.472,9.657,1.029,6.545,-1.584,11.931,-6.113,-15.248
3.3164,11.756,11.273,-3.88,11.501,-1.051,8.85,0.084,-8.716
3.3203,12.811,9.108,3.686,8.61,2.436,9.158,-6.765,-13.535
3.3242,15.184,9.242,2.913,8.236,5.426,6.795,-6.551,-9.096
3.3281,16.182,11.638,2.134,6.599,3.776,1.548,-7.908,-9.273
3.332,10.702,7.475,3.069,8.835,6.733,5.909,-7.693,-7.487
3.3359,13.799,15.474,1.596,9.36,8.282,4.481,-3.853,-8.909
3.3398,7.951,11.801,-1.593,3.588,5.676,4.463,-2.095,-8.138
3.3438,4.902,13.364,4.122,3.035,8.379,4.646,-8.263,-12.206
3.3477,6.147,14.6,1.393,3.266,7.41,7.041,-6.142,-13.672
3.3516,5.016,16.929,-1.94,-0.471,7.059,7.739,-5.646,-9.137
3.3555,1.574,13.173,-5.438,-1.413,8.49,5.26,-3.809,-12.705
3.3594,2.237,6.453,-7.639,2.733,8.442,6.495,-2.385,-14.474
3.3633,-4.384,11.159,-4.11,4.566,5.3,4.096,-6.115,-16.847
3.3672,-3.978,7.285,-0.409,2.689,6.701,-0.911,-12.487,-10.668
3.3711,-4.878,8.242,-2.485,4.518,9.345,-0.209,-13.305,-15.169
3.375,-4.086,5.227,-5.675,1.875,8.483,2.055,-14.467,-8.688
3.3789,-4.391,7.987,-3.044,3.001,7.635,-6.003,-16.401,-10.551
3.3828,-9.008,4.555,-4.065,5.969,7.566,-3.535,-19.062,-10.329
3.3867,-8.203,5.418,-2.095,6.609,8.505,-5.005,-19.071,-10.667
3.3906,-11.789,4.687,-2.071,4.619,5.283,-6.103,-15.432,-7.598
3.3945,-16.789,9.322,-8.987,4.118,6.404,-10.116,-14.405,-17.06
3.3984,-16.835,8.958,-2.396,2.02,10.245,-11.742,-15.126,-11.777
3.4023,-12.302,3.425,-6.439,4.266,4.068,-11.689,-11.144,-11.194
3.4062,-12.113,0.997,-7.807,-0.168,5.784,-6.445,-6.43,-9.127
3.4102,-11.295,-2.11,-4.645,3.088,9.895,-12.179,-10.393,-6.605
3.4141,-10.025,-0.225,-1.473,2.746,6.206,-13.338,-7.005,-5.776
3.418,-7.375,-2.833,-3.121,7.885,5.553,-10.508,-1.4,-2.784
3.4219,-2.965,-2.003,3.457,3.142,7.953,-17.761,-3.538,-0.238
3.4258,-4.214,1.837,4.356,6.223,11.311,-15.808,-4.283,0.804
3.4297,-2.587,-0.345,2.851,9.202,15.141,-13.458,0.606,7.534
3.4336,-2.173,1.739,0.735,9.461,10.564,-12.283,4.399,10.262
3.4375,-0.115,0.5,0.33,2.583,8.912,-15.843,-1.361,8.204
3.4414,1.083,7.67,3.921,6.178,6.222,-13.449,5.322,12.459
3.4453,-2.387,12.744,-2.488,2.328,8.045,-9.665,5.974,10.775
3.4492,-6.217,11.918,0.108,0.771,4.046,-3.762,5.825,9.706
3.4531,-4.538,13.562,-5.629,2.913,4.51,-6.042,11.643,9.944
3.457,-3.384,8.092,-8.456,7.152,1.396,-2.952,12.539,8.296
3.4609,-3.866,9.362,-13.511,8.546,2.662,0.052,12.473,9.753
3.4648,-4.335,6.8,-11.09,8.653,-2.837,0.233,10.23,9.392
3.4688,-3.439,8.666,-9.911,13.543,-2.342,-0.47,6.949,6.916
3.4727,-3.603,11.045,-14.654,8.987,-6.772,-4.003,4.677,3.976
3.4766,-0.684,9.368,-12.578,13.15,-3.699,-3.139,5.493,5.369
3.4805,-5.093,5.256,-15.242,14.478,-7.65,-1.109,8.089,6.578
3.4844,-7.65,4.192,-18.08,17.858,-8.493,1.097,6.024,5.964
3.4883,-7.61,3.194,-15.72,18.265,-6.125,-2.54,4.35,1.86
3.4922,-13.718,6.419,-22.153,18.151,-11.166,-3.117,1.731,-1.707
3.4961,-10.872,8.671,-17.71,16.763,-14.842,-5.819,3.431,0.722
3.5,-11.663,5.209,-16.342,15.594,-9.04,-0.117,7.07,-5.26
3.5039,-12.271,-4.678,-17.812,15.752,-18.009,-3.446,8.285,-4.774
3.5078,-9.16,-1.99,-19.987,15.052,-14.737,-2.231,7.244,-5.11
3.5117,-13.888,-6.361,-19.83,14.632,-20.745,-6.241,2.671,-4.04
3.5156,-8.125,-13.476,-17.662,15.861,-17.711,-9.03,5.431,0.83
3.5195,-11.297,-12.027,-13.859,15.43,-17.967,-15.088,4.816,2.21
3.5234,-11.492,-9.846,-9.656,10.5,-11.74,-18.29,3.746,1.889
3.5273,-7.405,-11.678,-10.703,9.163,-9.133,-12.134,5.195,5.956
3.5312,-9.621,-16.162,-6.303,9.606,-7.831,-14.384,8.153,7.359
3.5352,-10.177,-12.524,-2.097,3.235,-4.183,-13.977,6.455,6.113
3.5391,-9.546,-17.245,-4.817,6.756,-7.244,-16.903,8.151,12.808
3.543,-10.426,-11.957,-6.075,-2.641,-5.016,-15.965,3.086,10.576
3.5469,-13.177,-8.0,-5.776,-4.181,-3.152,-10.945,6.253,8.463
3.5508,-9.961,-10.063,-2.278,-8.33,-6.873,-7.594,4.401,6.715
3.5547,-9.872,-12.069,-4.993,-3.506,-5.135,-10.114,8.623,8.932
3.5586,-9.997,-10.662,-3.449,-8.743,-4.031,-6.121,7.439,8.568
3.5625,-12.438,-11.272,-5.388,-7.733,-3.587,-6.999,10.768,10.148
3.5664,-10.621,-10.339,-0.967,-6.584,-2.098,-8.489,6.968,10.485
3.5703,-15.943,-10.271,-1.382,-5.352,-4.501,-5.396,6.409,9.698
3.5742,-11.186,-9.016,-1.808,-6.198,-3.368,-10.041,2.659,8.785
3.5781,-11.151,-9.43,-1.219,-5.489,-3.69,-5.826,1.367,17.48
3.582,-9.139,-10.403,-3.03,-11.401,-1.77,-6.476,1.336,14.46
3.5859,-11.301,-10.475,3.562,-3.224,-4.675,-6.606,3.786,14.354
3.5898,-11.15,-10.178,0.007,-2.93,-6.632,-3.612,6.776,11.066
3.5938,-6.728,-10.886,1.895,-1.508,-7.797,-5.448,4.676,7.238
3.5977,-9.372,-9.713,-0.823,-2.133,-7.346,-5.187,5.015,9.488
3.6016,-6.166,-8.93,-2.848,-5.877,-10.18,-0.509,8.145,9.274
3.6055,-5.509,-9.48,-2.019,-3.484,-11.489,0.921,11.054,12.018
3.6094,-3.171,-8.771,0.946,-5.915,-10.245,1.599,16.682,12.86
3.6133,-1.336,-12.512,-0.646,-0.606,-17.931,-9.007,15.378,12.705
3.6172,2.334,-9.937,1.025,-2.454,-12.709,-1.374,13.151,13.472
3.6211,7.326,-8.506,5.122,-3.854,-12.144,-2.396,12.889,16.179
3.625,11.814,-9.814,6.858,-2.56,-5.216,-2.293,13.981,15.138
3.6289,11.565,-7.156,9.324,0.058,-6.83,0.645,15.356,18.247
3.6328,12.917,-7.812,6.682,-2.574,-6.623,1.938,14.093,17.601
3.6367,8.974,-3.064,7.401,-0.225,-6.189,4.507,13.033,11.783
3.6406,10.328,-2.077,7.682,-5.72,-8.117,4.122,16.217,13.087
3.6445,12.046,-3.236,3.404,-3.976,-8.145,9.478,13.952,9.295
3.6484,11.998,1.11,2.155,-9.401,-7.144,10.598,16.184,9.684
3.6523,10.638,4.273,-0.477,-8.812,-8.326,13.147,18.089,6.369
3.6562,11.265,-0.367,-3.151,-8.519,-9.105,15.61,15.496,7.837
3.6602,9.186,-0.317,0.062,-6.129,-11.481,18.128,13.274,6.702
3.6641,9.431,-0.692,-0.687,-5.205,-12.661,17.489,15.661,4.838
3.668,7.173,-3.656,-0.213,-6.054,-10.068,13.98,5.893,3.623
3.6719,6.132,-0.179,-4.954,-2.458,-8.329,15.078,0.001,-4.147
3.6758,7.679,-4.133,4.231,-0.671,-10.242,13.019,-0.847,-3.595
3.6797,0.345,-3.43,-2.142,-4.942,-4.99,16.501,0.807,4.244
3.6836,4.968,-1.05,3.633,-6.829,-5.22,14.583,-6.996,-0.883
3.6875,-5.659,-3.059,-2.759,-1.912,-5.709,10.151,-8.197,-4.819
3.6914,-3.891,-4.39,-0.468,-4.355,-7.738,14.635,-6.369,-7.975
3.6953,-0.476,-2.941,-2.513,-5.793,-6.9,4.593,-9.897,-10.287
3.6992,-0.351,-4.892,2.724,-6.561,-2.91,9.592,-9.062,-14.915
3.7031,-3.207,-6.887,-0.305,-10.039,-6.853,6.846,-5.552,-12.392
3.707,-2.008,-8.365,0.375,-9.97,-7.57,11.481,-8.4,-10.478
3.7109,2.497,-13.428,1.82,-9.221,-7.759,6.575,-10.221,-11.181
3.7148,-0.205,-12.881,9.436,-5.892,0.379,1.825,-11.188,-10.328
3.7188,7.331,-13.247,12.969,-9.479,3.277,0.116,-8.315,-2.755
3.7227,5.649,-14.78,18.167,-13.519,1.817,-2.608,-9.213,-6.036
3.7266,9.016,-12.411,15.099,-15.071,6.19,-2.259,-10.506,-1.981
3.7305,12.79,-6.427,18.13,-13.568,9.964,-1.799,-10.568,0.584
3.7344,9.809,-7.307,16.235,-16.853,14.635,-1.897,-8.286,2.634
3.7383,6.851,-8.276,19.336,-18.629,10.264,0.769,-5.415,0.434
3.7422,8.214,-5.461,19.752,-15.79,9.439,1.813,-9.062,3.095
3.7461,8.674,0.595,21.411,-17.68,18.528,0.609,-7.693,0.918
3.75,6.755,6.152,20.936,-21.294,15.625,1.811,-6.991,-2.472
3.7539,9.467,3.586,18.656,-20.034,16.072,8.646,-3.64,0.256
3.7578,8.407,6.811,13.153,-18.59,14.003,11.333,-1.576,0.112
3.7617,11.426,5.431,16.063,-15.01,14.134,12.624,1.151,-0.695
3.7656,9.823,7.081,14.064,-12.18,9.353,11.978,-4.472,-0.278
3.7695,10.225,5.53,13.582,-16.338,10.783,13.437,-6.845,-0.669
3.7734,12.064,12.023,12.091,-9.779,13.349,12.284,-6.102,-0.798
3.7773,13.711,10.727,10.771,-6.283,8.92,16.429,-6.795,-0.725
3.7812,14.26,13.766,13.46,-5.668,12.002,18.287,-9.542,-1.412
3.7852,9.654,11.054,9.057,-2.139,9.791,9.115,-4.28,-7.349
3.7891,7.925,14.141,7.765,1.326,7.332,8.109,-9.558,-4.072
3.793,11.248,15.83,5.858,0.916,4.663,12.156,-9.1,-7.437
3.7969,8.251,15.573,9.633,3.867,2.383,13.287,-7.425,-12.407
3.8008,6.846,16.123,5.079,3.273,-0.213,12.817,-5.872,-10.814
3.8047,11.052,12.905,-1.144,1.845,2.662,15.041,-1.542,-10.369
3.8086,11.2,9.804,-1.344,3.713,0.484,12.826,-4.777,-9.629
3.8125,7.349,12.594,-0.808,0.651,-2.62,10.343,-2.323,-11.485
3.8164,11.658,10.914,1.369,7.201,0.436,8.095,-4.584,-12.185
3.8203,14.254,7.57,1.147,5.49,1.332,6.358,-3.775,-10.417
3.8242,15.26,10.609,4.113,8.186,3.465,7.003,-6.279,-11.442
3.8281,16.596,8.024,6.001,7.516,2.291,3.959,-6.185,-8.231
3.832,11.767,7.062,0.08,8.341,9.107,4.414,-3.865,-9.272
3.8359,13.128,11.913,0.331,9.438,5.33,5.98,-5.085,-6.163
3.8398,9.309,7.642,1.688,5.605,7.602,3.991,-8.276,-13.071
3.8438,6.821,14.456,1.404,8.301,5.894,6.382,-4.437,-9.878
3.8477,8.004,13.044,4.904,1.9,7.248,2.805,-5.372,-12.49
3.8516,7.807,12.752,0.692,-2.832,10.811,3.511,-6.235,-10.833
3.8555,6.55,12.408,-1.617,-1.55,9.446,7.369,-6.746,-14.325
3.8594,3.205,10.825,-5.228,-0.032,9.917,7.421,-6.094,-12.942
3.8633,-1.919,6.7,-5.131,3.544,7.657,3.263,-7.835,-13.745
3.8672,-2.459,9.403,-6.539,1.694,7.979,5.139,-15.198,-13.532
3.8711,-2.174,8.254,-1.328,3.497,4.847,3.86,-13.612,-16.16
3.875,-3.751,5.274,-1.927,3.97,9.372,-2.89,-14.418,-11.539
3.8789,-4.687,6.595,-0.922,3.896,10.501,0.396,-21.066,-15.04
3.8828,-5.345,8.621,-4.38,7.343,13.086,-8.251,-16.478,-11.95
3.8867,-9.77,8.571,-4.106,7.828,8.328,-2.74,-16.084,-14.132
3.8906,-13.373,6.69,-2.944,8.886,8.45,-8.394,-16.567,-10.373
3.8945,-13.834,3.091,-1.232,4.887,7.551,-6.239,-15.302,-11.875
3.8984,-11.65,5.975,-6.427,6.556,9.231,-10.815,-15.366,-11.294
3.9023,-12.271,5.034,-2.96,0.628,6.558,-9.069,-13.746,-7.717
3.9062,-10.991,2.321,-5.005,0.991,8.005,-10.727,-12.424,-9.333
3.9102,-9.748,0.207,-6.385,2.683,2.221,-10.641,-4.8,-5.684
3.9141,-10.719,-1.71,-6.464,6.49,2.161,-8.679,-4.706,-5.111
3.918,-6.314,-2.32,-0.112,9.452,1.721,-14.933,-3.099,-3.333
3.9219,-4.103,-2.377,4.944,5.543,9.839,-12.072,-5.587,2.423
3.9258,-4.461,-3.916,6.178,5.206,11.8,-17.265,-0.417,7.595
3.9297,2.641,1.411,3.468,5.491,13.543,-12.602,-2.634,5.908
3.9336,-0.988,2.187,6.394,7.26,10.271,-17.566,0.617,10.497
3.9375,-4.003,4.778,2.203,5.24,9.3,-13.753,3.984,9.927
3.9414,-3.497,3.587,3.775,4.515,8.738,-13.094,6.296,9.385
3.9453,-3.566,10.153,-0.368,1.615,10.726,-7.194,10.077,8.598
3.9492,-1.109,14.585,-3.05,2.014,10.245,-7.25,8.629,7.352
3.9531,-1.678,10.795,-6.654,5.495,7.026,-8.695,9.748,1.11
3.957,-2.392,9.661,-12.385,4.877,3.875,-4.585,10.977,11.305
3.9609,-1.511,9.507,-7.521,5.867,3.185,-2.813,11.146,6.081
3.9648,-2.839,12.751,-12.079,12.555,-2.332,0.862,15.368,5.767
3.9688,-2.884,7.074,-12.741,10.963,-3.918,-0.221,10.506,4.859
3.9727,-2.16,9.907,-14.341,16.315,-3.821,-2.911,9.811,3.549
3.9766,-1.55,7.565,-13.984,17.463,-5.919,-3.172,6.396,5.929
3.9805,-7.957,6.988,-11.893,16.238,-5.594,-0.107,6.367,5.342
3.9844,-6.654,6.723,-12.605,14.705,-9.877,-3.687,6.956,2.855
3.9883,-12.928,8.651,-20.751,23.25,-8.498,-1.148,3.477,2.314
3.9922,-10.575,9.038,-18.457,19.209,-11.943,-2.327,3.228,-0.64
3.9961,-11.661,5.44,-20.472,16.464,-11.726,-4.316,2.83,-0.591
4.0,-9.777,1.73,-17.604,17.461,-18.696,-3.048,4.701,-5.796
4.0039,-9.601,4.099,-20.119,16.076,-12.375,-3.551,7.373,-4.502
4.0078,-11.931,-5.687,-22.039,17.375,-20.213,-3.392,6.555,-1.005
4.0117,-13.644,-9.377,-19.081,13.876,-20.076,-8.969,8.466,-3.433
4.0156,-11.275,-13.935,-17.345,15.694,-18.464,-7.972,7.349,-3.471
4.0195,-11.902,-8.628,-10.025,11.406,-12.656,-10.034,5.423,-1.533
4.0234,-8.941,-10.1,-9.65,12.945,-11.803,-13.346,3.905,1.835
4.0273,-5.573,-7.943,-7.749,9.236,-9.733,-13.436,6.232,4.769
4.0312,-8.584,-16.323,-13.152,7.844,-8.801,-14.76,5.51,6.96
4.0352,-7.063,-10.829,-6.497,5.148,-9.119,-12.607,6.622,6.44
4.0391,-8.986,-12.829,-0.527,2.645,-3.844,-14.274,8.368,9.918
4.043,-13.447,-9.899,-0.734,-1.699,-4.073,-16.455,3.597,10.479
4.0469,-9.985,-13.572,-6.781,-1.91,-2.088,-11.429,11.21,3.933
4.0508,-10.539,-7.164,-4.458,-3.451,-3.113,-14.342,8.134,5.32
4.0547,-11.983,-9.498,-7.277,-8.996,-8.923,-8.306,10.3,11.387
4.0586,-14.395,-12.518,-1.78,-6.63,-6.628,-8.232,8.025,13.092
4.0625,-15.215,-11.932,-3.833,-5.867,-3.918,-8.275,10.489,5.694
4.0664,-14.423,-14.491,-4.164,-5.827,-5.68,-7.904,5.897,11.496
4.0703,-11.096,-13.179,-0.997,-8.596,-5.187,-10.518,3.592,13.656
4.0742,-12.461,-12.105,-5.558,-8.144,-4.942,-8.111,2.367,9.969
4.0781,-8.542,-14.601,-2.587,-6.785,-0.05,-8.194,2.87,16.376
4.082,-11.861,-9.211,-0.563,-8.621,-1.517,-8.474,4.276,13.629
4.0859,-10.566,-8.27,1.274,-0.523,-3.078,-3.896,3.601,14.07
4.0898,-10.598,-11.106,-3.683,-2.23,-7.351,-5.946,3.076,10.473
4.0938,-5.603,-7.765,-0.157,-3.645,-7.256,-4.767,2.428,12.364
4.0977,-11.787,-8.334,2.27,-9.131,-11.125,-2.161,4.226,11.323
4.1016,-4.05,-7.709,-3.647,-9.149,-9.312,-0.468,7.601,13.37
4.1055,-4.745,-11.218,-1.093,-5.121,-15.001,-0.418,12.037,13.48
4.1094,-2.5,-13.42,-1.124,0.229,-14.245,-1.41,13.954,11.03
4.1133,-1.111,-10.324,3.824,-3.538,-12.524,-4.091,14.505,17.392
4.1172,2.327,-12.071,2.306,0.418,-6.751,-1.841,12.628,14.197
4.1211,4.688,-6.62,4.468,-2.444,-13.443,-0.631,13.437,13.653
4.125,11.427,-9.258,7.57,-2.078,-10.11,-1.514,13.045,12.364
4.1289,10.032,-10.198,3.385,-0.313,-5.515,-7.464,10.883,12.988
4.1328,14.003,-4.871,5.533,-3.628,-1.963,3.157,14.487,13.724
4.1367,9.987,-4.446,5.201,-4.598,-5.687,5.015,13.971,13.716
4.1406,10.383,-1.895,5.966,-1.386,-5.522,4.056,12.075,16.151
4.1445,8.021,1.526,7.407,-5.981,-8.015,8.458,12.773,12.004
4.1484,11.176,-0.518,5.19,-5.915,-8.359,10.297,14.557,7.994
4.1523,13.105,0.723,0.193,-10.633,-7.317,10.691,12.53,7.68
4.1562,9.337,-0.347,-0.213,-6.139,-9.563,17.165,13.033,6.11
4.1602,7.811,-3.794,1.452,-6.904,-8.012,13.278,15.653,6.34
4.1641,4.801,-2.311,-2.93,-4.837,-13.566,15.331,6.056,0.673
4.168,6.136,1.09,-0.082,-4.312,-8.41,13.891,5.112,1.084
4.1719,3.658,-0.726,-0.155,-5.229,-8.864,11.447,-0.151,-0.195
4.1758,5.181,-4.037,-0.006,-4.137,-7.815,13.278,-1.788,-2.895
4.1797,6.66,-5.29,-3.615,-4.66,-9.796,15.288,-2.692,1.565
4.1836,6.841,0.128,2.351,-1.239,-8.707,14.883,-6.383,-3.493
4.1875,7.256,-3.954,-1.409,-3.317,-5.261,12.85,-5.544,-7.254
4.1914,-1.617,-5.076,3.209,-6.685,-8.755,6.582,-5.879,-6.333
4.1953,1.492,-4.381,0.65,-8.89,-7.617,6.126,-7.671,-10.064
4.1992,-0.819,-7.727,0.748,-11.127,-9.039,8.649,-6.792,-10.231
4.2031,-1.184,-4.066,4.324,-7.89,-6.308,8.17,-10.458,-13.217
4.207,0.281,-10.465,4.509,-11.735,-8.223,6.721,-7.453,-8.63
4.2109,-0.12,-9.239,4.983,-8.421,-4.491,9.88,-6.349,-5.404
4.2148,0.984,-12.858,9.404,-8.559,-2.391,3.624,-6.668,-11.683
4.2188,2.028,-9.764,10.969,-9.668,0.381,1.734,-5.971,-7.164
4.2227,2.857,-11.096,14.526,-10.171,1.859,0.795,-7.593,-7.103
4.2266,5.113,-8.864,15.147,-12.362,6.96,-1.537,-7.328,2.842
4.2305,10.862,-8.125,19.5,-19.266,11.686,4.041,-2.983,2.578
4.2344,8.994,-6.83,17.426,-15.241,11.764,-2.275,-7.553,2.019
4.2383,7.663,-4.932,22.976,-14.654,12.264,-0.983,-8.227,-1.067
4.2422,8.45,-2.846,20.158,-13.78,17.179,-0.855,-7.035,-1.371
4.2461,10.335,4.65,20.524,-15.676,12.291,5.727,-8.198,1.523
4.25,9.845,1.216,20.419,-23.284,17.162,6.731,-4.474,-2.623
4.2539,8.666,3.968,16.722,-21.321,12.854,6.936,-6.359,-2.191
4.2578,12.344,4.227,14.243,-22.098,15.723,8.542,-3.311,0.474
4.2617,12.736,5.532,14.006,-13.176,14.618,13.933,-3.31,0.008
4.2656,10.743,5.28,15.94,-11.363,11.36,11.599,-3.009,-0.536
4.2695,12.738,8.83,12.905,-10.425,10.03,13.112,-4.516,-2.817
4.2734,14.76,9.811,13.256,-8.965,9.198,10.17,-9.755,0.009
4.2773,15.525,8.233,11.911,-4.558,12.232,12.092,-4.035,-3.127
4.2812,14.255,12.059,11.705,-2.425,13.659,12.686,-8.09,-0.33
4.2852,12.85,10.481,8.243,0.104,8.364,11.383,-8.404,-2.618
4.2891,11.047,10.318,11.032,0.738,8.131,12.215,-12.744,-4.427
4.293,6.844,15.4,6.07,0.056,2.812,9.802,-10.813,-6.05
4.2969,10.477,16.857,4.266,2.385,3.907,13.267,-6.428,-11.348
4.3008,6.968,16.367,2.127,2.651,1.137,14.492,-6.224,-12.697
4.3047,8.575,14.572,-2.335,1.701,2.217,15.614,-4.377,-15.042
4.3086,12.88,7.237,-2.87,3.407,0.082,14.699,-3.143,-16.009
4.3125,12.09,6.661,-1.441,8.619,-2.25,11.474,-6.777,-12.858
4.3164,14.174,12.763,3.349,11.182,-1.006,12.285,-5.106,-13.043
4.3203,12.24,6.998,2.483,6.697,0.054,8.543,-2.923,-14.482
4.3242,12.207,10.694,2.266,7.217,1.759,8.093,-3.675,-12.572
4.3281,14.851,8.136,5.55,7.912,8.77,7.835,-5.734,-6.008
4.332,14.78,9.591,5.809,7.923,7.021,4.741,-2.201,-6.278
4.3359,12.624,8.579,5.098,5.6,3.391,5.615,-8.32,-10.906
4.3398,12.182,12.174,0.948,9.425,6.229,5.938,-8.579,-10.736
4.3438,7.064,12.875,1.287,4.584,9.34,1.85,-3.401,-10.699
4.3477,6.967,12.653,4.534,2.498,6.502,2.39,-5.681,-13.779
4.3516,2.871,11.075,-0.829,3.306,11.502,3.185,-6.664,-14.381
4.3555,3.861,12.124,-4.041,-1.324,6.67,6.543,-5.92,-13.441
4.3594,0.581,7.238,-3.262,0.537,8.664,5.946,-8.435,-10.941
4.3633,-3.199,9.207,-2.544,-0.147,9.07,2.122,-8.603,-11.503
4.3672,-3.636,13.22,-4.779,3.243,8.087,2.751,-11.615,-15.87
4.3711,-4.076,10.728,-2.452,1.115,5.661,-0.181,-14.323,-13.144
4.375,-4.534,9.223,-1.056,5.788,8.122,0.73,-18.043,-12.825
4.3789,-1.406,6.763,-5.815,5.632,13.291,1.447,-15.832,-13.365
4.3828,-7.189,1.981,-3.933,5.167,9.03,-2.574,-17.929,-11.209
4.3867,-10.139,2.573,-6.052,6.345,11.292,-6.286,-19.445,-13.535
4.3906,-16.11,7.821,-5.252,8.076,7.059,-5.385,-15.195,-9.703
4.3945,-14.793,3.892,-4.142,3.278,7.383,-8.172,-12.568,-9.571
4.3984,-13.444,3.595,-2.532,4.559,4.143,-9.372,-10.826,-13.027
4.4023,-13.649,3.001,-5.076,4.755,5.609,-10.655,-10.366,-11.962
4.4062,-8.908,-1.255,-6.26,0.203,4.598,-10.036,-9.355,-6.592
4.4102,-11.418,-3.817,-4.165,6.481,6.082,-10.569,-7.125,-4.471
4.4141,-7.392,-2.538,-4.589,3.124,5.576,-10.73,-5.301,-7.472
4.418,-7.703,-3.958,1.018,6.812,7.213,-13.695,-6.276,-3.457
4.4219,-4.786,-2.642,4.311,4.421,7.286,-12.641,-1.499,-0.308
4.4258,-2.169,-1.683,2.671,9.022,8.592,-15.144,-6.096,1.89
4.4297,-0.236,1.777,2.352,3.609,12.115,-14.737,-0.22,7.543
4.4336,3.451,1.35,3.217,2.814,9.566,-14.927,3.958,7.43
4.4375,-5.332,3.306,-1.768,6.461,12.584,-15.255,2.042,8.208
4.4414,-5.41,7.456,2.942,4.754,8.751,-13.162,4.489,8.52
4.4453,-2.611,8.579,6.738,1.296,7.186,-11.669,7.906,5.126
4.4492,-1.185,9.919,-2.266,4.209,7.781,-12.742,12.146,3.906
4.4531,0.25,11.579,-5.537,-0.843,5.285,-6.536,8.892,10.117
4.457,-0.772,11.12,-6.777,2.623,-0.103,1.24,10.076,6.755
4.4609,-3.519,8.595,-6.804,6.196,-1.609,-0.05,10.63,11.74
4.4648,-1.48,8.848,-8.846,11.688,0.295,-1.759,7.851,10.194
4.4688,-1.456,7.558,-15.449,14.724,-2.968,-1.034,6.059,4.287
4.4727,-2.612,7.779,-10.855,15.68,-6.926,-6.217,5.641,9.795
4.4766,-0.857,10.703,-8.431,14.349,-3.258,-1.511,9.341,7.324
4.4805,-3.195,8.972,-14.175,11.271,-6.362,1.015,5.746,4.14
4.4844,-7.049,7.733,-19.102,18.483,-9.391,-1.67,5.62,-0.875
4.4883,-7.172,6.518,-16.866,21.612,-12.837,-5.607,2.578,3.391
4.4922,-10.425,5.528,-20.31,20.902,-11.031,-3.9,5.077,-0.511
4.4961,-11.649,5.936,-15.937,18.038,-18.516,-1.208,7.931,-1.584
4.5,-8.923,4.354,-21.492,13.17,-17.113,-3.326,3.821,-3.573
4.5039,-16.878,0.936,-20.544,13.621,-15.938,-6.591,10.725,-5.179
4.5078,-15.172,-5.034,-22.482,18.621,-13.911,0.349,8.928,-3.31
4.5117,-15.017,-5.46,-20.319,12.367,-16.572,-8.808,7.928,-0.74
4.5156,-12.972,-9.928,-13.418,12.761,-18.915,-9.686,7.58,-2.373
4.5195,-11.356,-10.156,-13.046,15.663,-12.213,-14.162,6.563,-1.073
4.5234,-11.953,-11.473,-11.862,10.75,-14.964,-16.06,9.274,-1.002
4.5273,-9.515,-12.284,-11.379,6.919,-8.714,-15.543,7.062,5.145
4.5312,-9.19,-15.015,-11.561,10.338,-6.24,-13.267,7.602,5.156
4.5352,-3.759,-12.342,-8.866,6.363,-8.13,-11.808,5.686,10.334
4.5391,-6.737,-7.279,-4.469,2.383,-4.714,-15.177,7.85,6.904
4.543,-12.361,-12.261,-1.426,-2.255,-6.698,-16.179,4.189,7.235
4.5469,-12.66,-10.134,-4.208,0.604,-3.402,-12.112,7.081,12.082
4.5508,-14.234,-10.993,-0.69,-6.479,-7.586,-10.058,14.045,7.814
4.5547,-16.003,-12.047,-6.309,-5.088,-2.969,-8.391,4.468,8.5
4.5586,-13.104,-9.351,-5.678,-5.949,-4.963,-6.912,9.997,11.124
4.5625,-15.492,-14.568,-6.48,-7.773,-2.548,-7.604,8.748,6.382
4.5664,-13.518,-13.908,-0.647,-6.869,-5.029,-8.051,5.692,12.366
4.5703,-15.382,-15.195,3.13,-2.65,-1.571,-9.463,3.971,12.368
4.5742,-12.074,-12.694,-3.867,-2.616,-1.72,-6.995,3.701,12.743
4.5781,-9.119,-14.313,-1.109,-8.977,-2.2,-3.85,2.903,6.462
4.582,-8.645,-9.671,1.893,-3.243,-0.854,-6.88,3.883,13.466
4.5859,-9.323,-5.054,-3.311,-3.581,-2.493,-6.585,2.28,10.895
4.5898,-13.458,-10.437,1.333,-5.032,-5.14,-5.844,7.2,14.159
4.5938,-8.783,-11.795,3.049,-3.061,-12.193,-7.344,3.347,12.467
4.5977,-10.633,-6.003,0.407,-7.45,-10.415,-3.464,6.904,10.431
4.6016,-5.728,-9.82,0.357,-6.434,-6.284,-2.386,7.184,7.515
4.6055,-5.066,-7.365,1.971,-6.714,-12.457,-2.419,12.983,13.587
4.6094,-6.075,-12.217,2.641,-4.711,-9.343,0.999,14.096,10.523
4.6133,-1.98,-13.692,0.271,-2.284,-10.466,-1.193,13.749,14.786
4.6172,2.168,-12.299,1.702,-3.34,-12.953,-4.194,10.576,12.026
4.6211,6.221,-9.149,2.971,1.662,-13.832,-2.117,11.165,13.586
4.625,8.237,-9.805,7.814,-1.202,-8.76,-1.749,16.754,13.438
4.6289,14.009,-9.339,3.294,0.846,-1.793,1.346,12.84,18.862
4.6328,13.753,-7.723,5.47,-3.256,-7.228,3.08,16.201,17.831
4.6367,10.762,-8.252,6.318,-4.315,-7.68,2.933,12.832,18.469
4.6406,12.004,-2.555,5.238,-0.705,-8.921,3.714,16.17,13.751
4.6445,14.033,-4.428,6.27,-7.228,-4.91,6.485,12.535,10.936
4.6484,14.187,-0.101,9.211,-8.454,-7.824,9.767,12.361,10.411
4.6523,7.759,2.496,1.447,-7.822,-8.733,13.029,13.372,10.836
4.6562,7.639,0.602,-1.357,-11.427,-5.419,15.226,13.347,8.659
4.6602,11.174,-0.032,0.502,-6.029,-8.302,15.632,13.366,5.016
4.6641,4.914,-1.914,-0.788,-4.54,-12.192,17.439,9.4,-1.284
4.668,3.949,0.757,2.507,-2.037,-12.637,12.857,3.288,2.005
4.6719,5.871,0.649,0.561,-2.438,-6.626,18.056,2.126,-3.672
4.6758,7.848,-0.453,-0.377,-1.534,-7.352,14.197,-2.572,-1.127
4.6797,6.002,-0.323,-3.921,-3.995,-9.608,10.413,-1.009,-1.843
4.6836,2.902,-1.701,-3.71,-4.884,-10.314,12.758,-2.754,-5.737
4.6875,0.289,-4.652,-3.532,1.309,-9.89,12.948,-6.74,-4.523
4.6914,-1.868,-6.469,1.915,-6.746,-10.817,9.275,-8.038,-3.73
4.6953,-3.138,-2.993,-0.832,-8.384,-12.266,5.807,-5.85,-10.798
4.6992,3.257,-3.68,4.51,-6.543,-9.479,6.239,-9.157,-9.516
4.7031,-0.287,-4.731,1.958,-5.876,-8.088,9.323,-9.587,-6.136
4.707,1.189,-11.551,2.033,-9.053,-6.404,4.208,-5.808,-8.529
4.7109,-1.222,-13.786,2.878,-7.022,-1.305,3.171,-9.549,-11.039
4.7148,0.392,-12.042,9.126,-12.824,-3.666,4.486,-8.832,-8.683
4.7188,1.418,-12.765,9.938,-10.538,-0.595,0.204,-10.676,-6.911
4.7227,0.349,-15.381,12.572,-14.796,4.685,-2.572,-11.135,-2.665
4.7266,5.444,-9.82,18.847,-11.118,7.17,-2.637,-9.621,-0.109
4.7305,5.935,-13.268,18.401,-16.941,11.412,-4.083,-6.451,-5.441
4.7344,5.048,-9.967,18.343,-17.149,12.748,0.574,-5.534,-0.258
4.7383,6.465,-2.925,21.289,-14.476,13.083,-1.384,-5.796,1.249
4.7422,11.083,1.27,20.808,-14.937,18.905,-0.041,-6.717,-1.429
4.7461,8.656,-1.612,21.249,-19.367,16.016,3.295,-6.883,-7.37
4.75,12.066,2.371,17.268,-19.417,12.837,4.614,-9.325,-1.349
4.7539,10.8,4.045,20.815,-19.546,15.904,6.615,-2.17,0.464
4.7578,11.456,7.76,13.679,-19.397,12.83,6.291,-6.811,-0.594
4.7617,7.776,3.741,17.178,-18.405,14.095,11.898,-6.926,-2.253
4.7656,10.802,5.185,13.774,-12.259,9.631,11.034,-5.231,-1.214
4.7695,12.248,11.298,15.845,-9.9,10.249,9.257,-6.209,-1.252
4.7734,11.123,9.399,14.976,-7.51,13.827,8.215,-8.73,-2.769
4.7773,14.384,12.841,14.184,-6.695,15.457,11.095,-5.116,1.34
4.7812,14.159,9.085,8.295,-7.184,13.612,13.047,-7.462,-1.468
4.7852,10.555,12.34,10.594,-0.831,12.228,12.827,-9.383,-4.789
4.7891,7.762,10.467,11.108,-0.179,8.685,15.78,-6.736,-7.877
4.793,6.67,13.015,5.865,-0.211,6.11,13.58,-6.442,-8.84
4.7969,9.248,17.56,4.811,0.262,3.367,12.064,-7.503,-8.21
4.8008,10.334,15.214,1.422,-0.362,5.057,14.446,-8.114,-13.022
4.8047,8.579,12.8,-0.394,3.86,4.422,13.731,-5.693,-10.473
4.8086,10.326,9.604,2.626,1.273,0.958,13.457,-6.49,-11.782
4.8125,11.551,8.942,-2.388,4.365,-0.103,14.323,-3.975,-8.519
4.8164,12.436,9.418,-0.807,7.197,3.494,7.385,-7.013,-12.048
4.8203,15.887,11.058,5.771,11.424,1.881,6.805,-6.398,-13.707
4.8242,17.065,4.222,4.485,9.853,4.538,7.696,-5.327,-9.357
4.8281,13.329,7.846,7.338,3.928,7.573,5.55,-9.451,-7.515
4.832,17.943,9.75,1.806,9.652,7.546,4.254,-7.856,-8.824
4.8359,11.404,9.648,2.84,9.344,6.155,1.427,-6.815,-10.711
4.8398,12.004,11.857,1.333,3.31,8.231,-0.152,-6.741,-8.78
4.8438,7.922,13.137,2.564,-1.303,7.433,8.301,-8.116,-11.384
4.8477,5.439,12.94,-2.641,1.291,11.71,5.261,-7.378,-15.559
4.8516,1.233,12.121,0.058,2.033,10.083,4.616,-7.499,-12.255
4.8555,2.618,11.097,-2.859,2.757,7.192,7.458,-8.708,-14.038
4.8594,-2.544,11.961,-4.814,-1.028,9.115,4.717,-7.892,-16.154
4.8633,0.235,6.888,-5.339,5.863,7.612,4.331,-9.583,-14.57
4.8672,-0.131,7.841,-5.426,-0.868,9.805,0.57,-12.631,-11.834
4.8711,-5.302,8.394,-1.436,3.357,7.361,-2.816,-14.139,-11.649
4.875,-3.389,10.907,-5.252,3.458,10.385,-5.844,-14.885,-10.918
4.8789,-6.4,6.334,-2.471,7.097,10.753,-5.774,-14.998,-10.81
4.8828,-8.249,7.776,0.191,8.317,10.756,-1.444,-18.137,-9.423
4.8867,-8.103,7.681,-0.852,8.454,7.57,-6.866,-20.625,-10.809
4.8906,-11.992,5.128,-6.295,3.852,9.072,-5.608,-15.185,-14.24
4.8945,-9.526,5.05,-4.089,7.275,7.936,-6.278,-16.137,-14.487
4.8984,-13.882,4.336,-2.644,5.169,9.486,-8.859,-16.62,-13.42
4.9023,-10.279,2.821,-4.572,0.014,6.805,-9.529,-11.111,-7.861
4.9062,-11.477,2.578,-7.762,-0.366,5.525,-8.841,-6.688,-6.547
4.9102,-9.497,-0.901,-3.497,7.187,7.209,-11.047,-3.526,-9.063
4.9141,-10.864,-1.966,-2.315,6.112,3.801,-9.931,-5.611,-5.137
4.918,-7.926,-4.426,3.989,4.477,8.458,-10.964,-3.317,-3.966
4.9219,-5.091,-3.095,1.542,6.331,10.432,-13.393,-6.556,-0.501
4.9258,-3.664,4.167,5.165,6.887,12.967,-20.796,-2.096,2.36
4.9297,1.081,0.376,0.223,5.757,12.503,-16.46,-0.298,9.583
4.9336,1.314,0.265,0.414,3.01,10.652,-14.306,3.041,8.792
4.9375,0.494,6.525,3.732,9.966,10.646,-12.254,6.954,9.721
4.9414,1.667,6.826,4.036,7.59,9.74,-15.477,5.469,9.171
4.9453,1.374,10.019,-1.381,3.635,6.718,-13.756,4.843,6.048
4.9492,-1.964,10.199,-1.972,2.567,9.523,-5.007,6.583,8.236
4.9531,-0.384,10.001,-8.062,3.859,6.598,-5.637,14.771,10.405
4.957,-2.965,9.445,-8.626,2.436,1.429,-4.939,13.839,11.181
4.9609,-2.703,6.124,-8.421,7.992,4.279,-2.995,13.418,5.175
4.9648,-4.718,8.511,-11.666,7.422,-1.625,-0.225,10.239,3.213
4.9688,-0.276,9.714,-11.636,11.992,-5.324,-3.476,9.528,5.424
4.9727,-2.252,13.201,-14.241,11.138,-5.224,-1.827,5.612,7.335
4.9766,-3.218,9.336,-14.872,12.42,-0.986,-4.032,7.649,6.168
4.9805,-1.353,3.413,-11.904,19.417,-1.594,-5.028,4.021,6.791
4.9844,-10.267,6.634,-16.647,17.82,-5.623,1.421,4.839,1.568
4.9883,-12.596,11.435,-19.434,19.086,-7.909,-1.267,3.203,0.871
4.9922,-9.055,7.169,-18.378,14.411,-10.597,-3.74,-2.704,-4.966
4.9961,-11.53,2.922,-21.598,15.918,-13.471,-4.81,3.486,-2.732
5.0,-11.368,3.666,-21.609,16.471,-14.78,-0.914,3.798,-7.444
5.0039,-14.629,-2.37,-17.972,15.06,-15.099,-2.572,6.855,-0.226
5.0078,-12.383,-7.54,-21.051,10.445,-15.596,-2.093,8.202,0.654
5.0117,-8.636,-8.931,-15.445,15.615,-19.163,-7.468,11.43,-1.872
5.0156,-10.597,-10.202,-16.581,15.79,-15.759,-9.099,7.39,-4.69
5.0195,-10.507,-15.165,-13.325,16.346,-12.354,-11.283,6.45,0.399
5.0234,-9.816,-14.335,-9.462,10.302,-12.667,-15.088,6.551,5.755
5.0273,-8.334,-12.758,-14.434,4.798,-9.871,-14.829,7.765,5.915
5.0312,-11.727,-14.36,-7.408,5.289,-6.262,-15.707,7.428,9.75
5.0352,-8.159,-12.956,-6.462,3.247,-7.667,-13.591,7.093,7.527
5.0391,-8.65,-15.399,-1.721,4.62,-8.743,-17.047,7.594,6.63
5.043,-14.689,-10.083,-1.457,-5.396,-3.374,-13.015,1.249,7.685
5.0469,-13.256,-12.644,-5.354,-4.387,-5.695,-12.448,11.041,3.901
5.0508,-14.251,-6.815,-1.347,-3.578,-3.87,-11.481,11.458,12.955
5.0547,-14.117,-14.502,-5.399,-7.868,-4.859,-7.973,9.91,9.661
5.0586,-12.763,-14.625,-7.011,-5.944,-1.585,-8.194,6.704,11.686
5.0625,-17.666,-12.387,-3.927,-10.014,-3.141,-8.719,10.626,9.029
5.0664,-12.119,-9.631,-3.034,-9.047,-5.422,-7.16,4.76,6.779
5.0703,-10.673,-11.39,2.012,-2.668,-6.429,-7.926,5.447,13.232
5.0742,-11.052,-10.053,0.338,-5.339,-3.429,-10.15,0.952,9.446
5.0781,-14.378,-10.861,-0.005,-5.016,-0.805,-9.493,7.859,13.914
5.082,-11.371,-12.987,1.165,-6.579,-2.052,-7.605,0.555,14.871
5.0859,-7.692,-11.634,1.769,-3.137,-3.863,-7.676,3.393,13.589
5.0898,-16.373,-12.127,1.767,-5.258,-5.66,-3.306,-1.089,10.342
5.0938,-11.188,-11.019,3.445,-1.211,-6.091,-5.395,3.768,10.063
5.0977,-11.392,-6.999,1.468,0.705,-8.533,-4.965,4.914,7.754
5.1016,-5.385,-10.612,-0.409,-4.533,-8.152,-5.133,10.797,11.539
5.1055,-6.395,-9.324,0.927,-6.387,-11.919,-0.1,10.266,11.742
5.1094,-2.515,-14.257,-1.438,-8.779,-6.001,-2.028,14.906,11.005
5.1133,-0.217,-11.836,0.462,-5.509,-12.447,-2.537,10.862,10.039
5.1172,5.11,-12.921,6.21,1.8,-11.094,-0.709,12.067,15.71
5.1211,4.589,-7.851,8.055,-3.543,-8.708,-2.046,12.146,9.968
5.125,9.271,-8.703,5.844,-2.931,-8.444,-7.23,14.373,11.269
5.1289,7.975,-5.874,5.131,-1.432,-5.933,-0.891,15.104,15.884
5.1328,14.119,-8.836,8.901,0.028,-5.51,1.668,16.363,16.098
5.1367,9.755,-5.596,7.714,-3.617,-7.92,2.473,15.255,17.778
5.1406,9.382,-5.311,6.875,-5.032,-6.049,4.979,15.475,14.689
5.1445,10.121,-1.682,5.066,-5.928,-10.638,2.862,12.112,11.089
5.1484,7.14,0.263,4.745,-9.352,-3.832,3.379,15.065,10.222
5.1523,10.672,-0.475,1.647,-10.41,-5.896,10.111,18.013,8.916
5.1562,11.427,-2.435,-1.815,-8.128,-6.968,15.187,11.095,10.832
5.1602,8.79,-4.039,-1.271,-7.081,-12.934,9.363,13.535,5.247
5.1641,3.853,-6.463,-0.736,-1.443,-11.938,13.759,10.615,1.068
5.168,6.347,-3.695,-1.123,-3.698,-7.411,10.36,8.401,0.781
5.1719,8.328,0.054,2.039,-1.916,-0.64,12.612,3.634,-6.032
5.1758,3.251,-4.542,2.697,-6.276,-4.996,16.587,-0.084,-1.262
5.1797,4.057,-4.915,1.586,-2.724,-4.436,12.233,-1.436,0.575
5.1836,5.956,0.38,-1.023,-4.604,-5.698,12.173,-5.878,-1.698
5.1875,2.178,-5.046,1.652,-2.12,-9.353,13.081,-7.468,-4.671
5.1914,0.38,-3.139,1.313,-2.315,-6.347,10.016,-11.253,-6.74
5.1953,2.34,-2.549,-0.579,-5.431,-10.376,8.367,-6.38,-7.967
5.1992,-0.369,-3.447,3.345,-2.859,-9.701,10.17,-7.941,-8.197
5.2031,0.434,-9.956,2.19,-6.27,-8.797,9.183,-9.531,-9.952
5.207,4.837,-10.141,7.708,-7.077,-3.527,8.294,-6.424,-10.887
5.2109,-0.672,-15.21,7.48,-7.492,-4.806,5.792,-4.965,-14.376
5.2148,-0.832,-8.069,9.304,-5.305,-2.931,2.72,-6.425,-7.201
5.2188,3.7,-15.813,12.045,-12.413,-0.291,2.483,-11.333,-6.842
5.2227,6.531,-13.705,14.87,-8.307,1.415,-1.853,-15.999,-5.227
5.2266,7.146,-12.651,14.463,-14.662,6.303,0.815,-8.33,-3.913
5.2305,7.491,-12.556,14.214,-14.975,9.371,-3.236,-10.024,2.029
5.2344,14.167,-5.371,17.068,-13.471,9.376,2.473,-6.501,0.94
5.2383,9.509,-0.783,19.91,-13.038,11.83,1.173,-5.748,1.32
5.2422,6.968,-3.331,16.579,-19.368,11.21,-0.907,-5.163,0.489
5.2461,10.577,-1.822,19.394,-20.074,15.349,3.619,-2.878,0.93
5.25,9.266,-1.444,18.407,-20.362,16.323,3.827,-2.137,-2.195
5.2539,9.472,3.471,16.243,-20.994,12.576,8.091,0.594,1.596
5.2578,11.016,3.565,13.515,-17.258,13.82,9.296,0.506,-0.986
5.2617,6.994,3.425,13.383,-9.343,16.914,10.898,-0.147,-1.63
5.2656,10.459,6.581,17.6,-12.55,10.419,12.759,-4.99,0.474
5.2695,14.616,8.991,15.555,-12.597,13.318,11.329,-9.317,-3.928
5.2734,13.209,10.795,12.387,-11.891,13.35,8.039,-2.863,-0.065
5.2773,12.513,10.765,11.754,-7.97,15.648,8.933,-8.061,-1.201
5.2812,12.012,9.836,9.919,-6.728,13.198,12.627,-5.929,-4.88
5.2852,10.833,14.014,6.907,-1.277,9.657,13.318,-9.985,-0.317
5.2891,9.5,13.812,5.877,0.728,8.071,11.155,-7.581,-5.007
5.293,8.283,16.903,8.404,-0.172,5.928,15.353,-14.463,-7.626
5.2969,10.908,17.461,3.902,4.821,4.191,13.906,-9.349,-8.423
5.3008,6.214,12.47,0.28,-0.452,0.793,11.718,-6.761,-8.376
5.3047,11.888,10.569,0.212,1.843,4.859,12.189,-3.667,-11.263
5.3086,9.514,9.591,-0.561,5.388,3.217,12.911,-1.453,-10.737
5.3125,11.164,7.271,-4.325,8.136,-1.958,11.067,-6.078,-11.763
5.3164,8.945,10.327,0.996,10.409,-0.29,11.693,-3.593,-13.514
5.3203,15.44,9.795,4.285,9.053,1.472,8.727,-3.287,-15.477
5.3242,17.002,11.671,4.138,9.846,2.074,5.386,-1.157,-10.4
5.3281,17.251,10.303,7.557,5.88,2.871,6.288,-4.071,-6.297
5.332,11.546,9.849,5.209,8.786,6.4,6.638,-6.248,-6.863
5.3359,14.124,12.245,5.486,8.454,7.083,4.956,-8.345,-10.518
5.3398,10.724,11.99,8.255,8.683,4.593,5.194,-2.977,-7.657
5.3438,4.576,12.738,3.794,0.403,7.865,5.337,-5.654,-12.13
5.3477,6.215,16.511,1.233,-0.379,10.351,5.619,-6.881,-16.71
5.3516,5.577,13.405,0.636,1.434,10.191,4.226,-9.326,-10.728
5.3555,4.073,10.979,-4.624,-5.728,8.13,5.404,-7.672,-14.655
5.3594,0.93,7.987,-4.483,1.698,3.976,6.035,-5.56,-9.561
5.3633,-1.117,9.759,-5.854,4.479,8.428,3.58,-8.449,-11.571
5.3672,-0.217,10.441,-2.84,2.435,7.479,-0.494,-15.902,-14.855
5.3711,-1.256,7.926,-4.195,3.233,9.258,1.362,-13.098,-13.146
5.375,-9.727,10.402,-4.283,2.144,13.879,-0.942,-18.86,-7.964
5.3789,-5.584,2.994,-2.667,3.749,9.301,-5.258,-13.653,-9.349
5.3828,-7.321,5.747,-4.234,4.736,4.889,-3.969,-16.453,-10.138
5.3867,-13.156,5.137,-7.678,5.18,7.234,-5.261,-18.4,-5.228
5.3906,-11.726,3.801,-6.196,5.077,8.892,-6.314,-15.748,-11.794
5.3945,-10.507,10.24,-5.31,5.008,7.154,-10.355,-16.2,-11.512
5.3984,-15.091,4.862,-5.253,3.584,4.484,-11.6,-12.061,-14.078
5.4023,-11.605,2.517,-3.603,7.104,3.986,-7.892,-11.505,-14.013
5.4062,-13.503,0.921,-4.526,2.979,5.64,-12.175,-8.546,-9.276
5.4102,-12.432,-5.369,-2.138,5.799,3.138,-10.679,-7.555,-6.826
5.4141,-7.014,-3.956,-0.789,5.318,6.431,-12.991,-5.586,-4.585
5.418,-8.912,-0.209,2.304,5.868,5.465,-14.964,-2.04,-6.0
5.4219,-3.936,-2.418,3.265,3.339,7.012,-15.787,-5.142,1.131
5.4258,-5.734,-1.778,3.248,3.017,8.936,-13.296,-0.729,1.771
5.4297,3.481,3.351,4.956,3.509,12.276,-18.785,-1.389,7.989
5.4336,1.219,4.495,4.309,6.481,11.711,-12.561,-1.777,10.7
5.4375,-1.058,4.697,3.041,8.347,10.831,-18.204,4.147,8.497
5.4414,-0.255,5.352,4.411,2.008,9.34,-9.235,5.71,6.795
5.4453,-4.344,8.384,-4.158,3.208,7.694,-14.355,6.499,11.191
5.4492,1.151,8.867,-2.602,0.423,4.791,-2.747,6.118,9.764
5.4531,-1.778,8.648,-5.91,2.612,3.977,-5.298,12.088,8.584
5.457,-2.126,7.695,-5.959,6.847,2.424,0.616,13.344,11.172
5.4609,-3.734,7.653,-6.952,6.453,4.644,1.381,10.744,7.637
5.4648,-4.68,6.617,-13.697,9.988,-4.518,-1.879,8.219,5.009
5.4688,-2.127,5.994,-8.315,15.044,-3.974,-2.55,8.487,3.296
5.4727,-2.468,9.939,-14.324,14.391,-3.367,-3.985,8.892,4.901
5.4766,-1.479,9.634,-15.858,13.136,-4.569,-0.5,7.707,6.992
5.4805,-3.758,11.483,-15.889,16.443,-3.096,-2.387,4.609,8.21
5.4844,-4.899,5.486,-17.429,16.047,-8.259,-3.066,5.831,4.335
5.4883,-9.406,6.549,-20.546,19.512,-11.017,-0.989,6.263,4.441
5.4922,-6.187,6.061,-16.449,19.465,-11.401,-4.867,1.465,-1.002
5.4961,-14.787,4.036,-17.044,14.378,-10.963,-4.425,4.305,-4.01
5.5,-9.347,3.972,-17.472,15.899,-12.623,-3.629,8.275,-5.728
5.5039,-9.24,0.664,-21.559,14.437,-16.452,-5.04,4.726,-3.904
5.5078,-14.04,-4.177,-20.845,15.843,-17.167,-5.369,10.51,-4.993
5.5117,-8.185,-8.746,-19.287,16.863,-17.586,-3.231,11.133,1.866
5.5156,-10.255,-11.1,-13.014,16.012,-16.929,-9.609,6.336,-0.786
5.5195,-8.904,-14.156,-18.922,13.172,-16.966,-12.806,5.096,-0.543
5.5234,-8.882,-13.649,-12.658,13.479,-10.381,-14.339,7.626,5.481
5.5273,-7.979,-14.023,-9.078,7.536,-8.832,-13.729,5.649,2.359
5.5312,-7.888,-15.791,-9.989,4.641,-7.305,-16.607,1.814,7.106
5.5352,-7.893,-12.865,-6.88,-0.95,-8.91,-13.535,6.332,12.496
5.5391,-7.538,-10.576,-4.945,3.006,-5.985,-13.893,7.112,8.084
5.543,-11.175,-13.327,-4.701,-1.606,-9.456,-17.736,7.583,12.72
5.5469,-13.756,-9.709,-2.958,-2.695,-5.956,-9.481,5.102,9.325
5.5508,-10.287,-12.168,-2.575,-10.373,-5.033,-8.152,7.739,11.039
5.5547,-10.344,-11.681,-5.346,-9.177,-3.065,-10.473,11.43,12.051
5.5586,-11.561,-13.821,-6.109,-6.796,-0.379,-9.709,9.41,9.956
5.5625,-12.006,-12.018,-4.653,-8.791,-3.704,-6.923,5.148,8.976
5.5664,-13.89,-14.317,-2.643,-5.024,-2.044,-11.099,8.623,9.634
5.5703,-14.039,-9.996,-4.546,-6.657,-2.779,-6.371,3.952,8.406
5.5742,-12.286,-11.67,0.58,-5.607,-0.485,-10.072,5.7,11.562
5.5781,-12.688,-12.195,-1.319,-4.033,1.769,-5.064,0.616,13.208
5.582,-8.904,-13.441,1.887,-2.437,-3.893,-8.888,3.197,17.363
5.5859,-10.325,-10.147,0.765,-3.154,-5.675,-6.796,4.274,14.628
5.5898,-11.697,-7.913,2.54,-4.594,-4.746,-3.821,2.981,16.636
5.5938,-16.404,-7.915,-1.416,-4.501,-7.616,-6.675,1.485,6.043
5.5977,-11.527,-3.325,-0.492,-3.477,-8.009,-4.45,0.991,7.22
5.6016,-4.752,-5.506,-3.229,-7.544,-9.549,-1.083,11.569,9.21
5.6055,-6.374,-10.578,-2.961,-5.473,-11.138,-2.69,11.612,13.584
5.6094,-2.601,-12.289,1.248,-4.483,-7.867,-3.328,14.963,10.829
5.6133,-4.129,-11.489,3.37,-2.347,-14.079,-4.149,14.768,8.24
5.6172,4.315,-13.62,0.47,-3.328,-10.129,-1.087,13.824,11.005
5.6211,4.707,-8.332,3.895,-5.188,-8.793,-2.043,12.027,10.177
5.625,9.099,-8.627,5.708,-1.147,-10.78,-0.1,14.361,11.571
5.6289,15.597,-7.833,7.209,-0.814,-7.61,-1.123,17.232,20.046
5.6328,14.771,-5.951,2.455,-6.521,-6.827,-1.444,15.085,15.911
5.6367,10.662,-2.262,2.907,-2.48,-4.963,-1.554,18.525,15.93
5.6406,9.317,-3.007,7.223,-2.056,-7.66,10.394,11.154,13.21
5.6445,9.514,-1.081,1.812,-4.88,-7.511,7.535,10.694,10.527
5.6484,11.285,3.805,3.188,-8.93,-10.253,9.314,16.263,7.54
5.6523,10.004,2.912,2.015,-11.149,-2.83,12.619,13.159,7.33
5.6562,8.702,-0.646,0.345,-8.79,-8.104,11.76,18.541,7.3
5.6602,11.139,-1.202,-1.812,-6.956,-8.463,14.223,15.232,7.577
5.6641,6.802,-1.393,-1.999,-5.515,-11.434,18.932,12.436,4.325
5.668,11.194,-0.859,1.317,-4.936,-11.495,15.522,7.248,-2.054
5.6719,7.025,-3.914,0.802,-6.383,-5.117,11.57,0.338,1.182
5.6758,10.578,-4.43,-1.174,-3.289,-11.219,10.217,-3.604,-0.246
5.6797,6.921,-3.953,-0.278,-2.833,-5.953,11.636,0.694,-2.861
5.6836,6.129,-5.131,0.296,-2.757,-9.171,11.757,-7.407,-2.538
5.6875,0.189,-5.061,3.576,-2.689,-8.468,15.5,-3.523,-4.124
5.6914,-2.151,-2.511,2.729,-0.334,-9.614,9.597,-7.242,-7.944
5.6953,-0.46,-4.171,4.322,-6.78,-10.146,6.418,-9.507,-9.213
5.6992,0.671,-4.379,0.778,-5.11,-7.209,8.2,-7.958,-12.774
5.7031,-0.801,-9.36,0.849,-10.594,-11.386,8.768,-6.768,-6.861
5.707,-3.157,-10.602,2.05,-7.214,-6.109,5.156,-7.371,-14.113
5.7109,-2.964,-10.799,4.278,-6.554,-4.872,6.874,-4.432,-8.593
5.7148,-2.091,-11.772,5.866,-9.418,-5.851,5.83,-5.628,-8.424
5.7188,-0.691,-14.072,14.078,-6.217,2.766,0.926,-9.167,-6.586
5.7227,5.872,-11.286,16.309,-10.11,2.477,-2.775,-10.931,-6.949
5.7266,10.45,-6.172,15.859,-14.434,7.169,-2.705,-6.509,-0.198
5.7305,9.529,-9.598,18.975,-14.595,9.428,-4.459,-12.296,-0.117
5.7344,5.026,-9.463,19.259,-12.328,12.024,-0.662,-6.858,-0.918
5.7383,8.474,-5.976,21.446,-13.658,15.455,0.85,-6.169,-0.801
5.7422,8.107,-2.196,18.101,-19.177,18.318,-0.763,-9.047,0.851
5.7461,12.937,0.517,20.191,-19.328,15.685,6.481,-4.42,-3.162
5.75,6.57,2.967,18.786,-20.15,17.177,6.712,-4.662,3.703
5.7539,9.197,1.073,17.921,-21.637,18.596,4.439,-3.996,2.569
5.7578,13.303,2.272,13.582,-14.251,14.911,6.725,-0.326,4.11
5.7617,10.478,4.429,9.066,-15.748,16.343,9.196,-5.251,3.184
5.7656,10.88,5.808,11.989,-13.513,13.966,14.022,-3.17,-2.0
5.7695,11.02,7.069,14.109,-8.745,12.753,12.073,-10.703,-3.677
5.7734,12.936,9.794,13.636,-10.028,13.84,13.537,-7.256,-7.187
5.7773,14.82,11.519,15.258,-5.304,9.819,11.09,-8.1,-2.216
5.7812,11.407,13.818,11.141,-8.183,13.191,11.667,-9.466,1.948
5.7852,13.41,12.484,8.606,-3.119,7.432,10.136,-8.105,-4.702
5.7891,7.262,14.585,7.351,1.922,4.687,13.203,-9.668,-6.048
5.793,9.695,14.043,8.591,3.895,6.151,11.778,-7.463,-9.523
5.7969,9.433,17.025,3.561,-0.695,2.147,11.81,-7.408,-9.687
5.8008,8.447,16.065,2.189,-0.761,3.417,16.205,-5.658,-8.803
5.8047,10.119,15.17,-1.88,3.217,2.649,13.381,-4.009,-14.743
5.8086,9.028,12.529,2.041,2.863,1.45,16.028,-4.541,-14.667
5.8125,8.267,10.561,0.406,5.815,-1.677,8.554,-4.494,-9.532
5.8164,10.492,8.619,-0.337,9.607,2.109,14.557,-4.416,-11.362
5.8203,10.575,9.582,2.32,7.108,1.743,6.012,-6.087,-12.829
5.8242,15.157,11.599,4.255,3.813,5.269,6.731,-3.626,-7.415
5.8281,13.031,8.205,2.596,4.608,4.212,6.665,-5.297,-11.785
5.832,16.0,8.175,1.638,6.97,7.385,3.997,-4.577,-6.167
5.8359,10.103,10.208,1.279,2.918,9.99,6.478,-8.607,-8.52
5.8398,8.782,11.881,3.332,5.063,9.416,6.131,-4.749,-8.639
5.8438,6.537,10.954,1.561,0.956,5.916,2.722,-8.291,-16.285
5.8477,8.914,13.4,-0.001,4.715,6.934,3.241,-8.922,-13.047
5.8516,5.509,12.987,-3.984,4.118,6.529,5.874,-2.794,-11.29
5.8555,2.537,7.157,-3.351,-2.542,7.07,6.528,-4.414,-12.891
5.8594,1.572,9.224,-5.061,1.227,4.859,9.399,-4.868,-10.612
5.8633,-5.914,8.038,-5.201,0.439,6.72,6.398,-8.247,-11.423
5.8672,-3.251,7.647,-3.239,2.969,8.453,2.311,-12.196,-16.317
5.8711,0.287,10.859,-1.395,7.7,6.84,1.222,-14.922,-12.417
5.875,-3.729,5.354,-1.506,3.359,9.826,-5.728,-14.165,-14.797
5.8789,-4.813,5.285,-2.389,4.22,10.51,-3.809,-14.096,-11.241
5.8828,-5.896,0.634,-4.439,3.836,12.749,-2.911,-17.006,-9.302
5.8867,-7.86,4.256,-4.957,8.838,8.117,-2.662,-13.328,-12.677
5.8906,-15.91,4.464,-5.372,0.026,6.77,-6.279,-18.123,-10.456
5.8945,-16.37,4.452,-4.202,4.664,5.408,-5.274,-19.695,-13.686
5.8984,-12.497,7.209,-3.447,4.059,4.64,-7.156,-18.154,-13.367
5.9023,-13.707,5.054,-6.004,2.034,7.883,-9.908,-15.042,-9.25
5.9062,-9.047,1.025,-4.771,5.495,6.079,-9.387,-9.652,-10.373
5.9102,-11.719,-2.105,-6.199,7.515,5.74,-9.397,-7.448,-8.677
5.9141,-13.838,-0.384,-5.617,3.648,7.939,-13.236,-4.747,-3.161
5.918,-10.363,-2.215,1.799,11.234,8.952,-11.655,-5.493,-2.943
5.9219,-10.36,-2.797,1.099,3.901,4.974,-18.51,-2.45,-3.099
5.9258,-2.46,-3.553,1.155,8.737,11.748,-15.861,-1.935,5.143
5.9297,-0.62,-0.151,0.569,6.223,12.201,-14.115,0.399,5.958
5.9336,-0.836,3.324,3.316,5.107,10.702,-14.941,1.201,6.024
5.9375,1.465,8.216,5.038,5.376,11.083,-14.257,6.577,4.274
5.9414,0.991,6.385,1.063,5.514,5.527,-12.174,1.906,10.53
5.9453,-1.865,7.332,0.103,4.722,10.764,-8.645,7.321,6.384
5.9492,-5.483,8.106,0.123,1.317,7.887,-8.62,8.746,5.531
5.9531,0.105,11.742,-8.92,2.673,3.708,-6.657,13.043,9.559
5.957,-0.608,6.255,-4.33,3.154,2.043,0.336,12.77,9.847
5.9609,-2.131,9.99,-5.207,4.917,-2.893,0.011,12.539,5.896
5.9648,-1.555,10.322,-16.209,8.449,-2.448,1.01,10.393,8.075
5.9688,-5.846,9.994,-11.333,9.833,-4.101,-0.312,11.779,9.41
5.9727,1.038,9.061,-13.419,12.634,-6.214,2.049,7.591,7.81
5.9766,-4.701,10.294,-14.105,15.521,-2.409,0.155,10.813,7.831
5.9805,-2.242,8.424,-16.257,16.367,-2.69,-2.988,6.915,6.059
5.9844,-9.3,5.266,-15.169,21.65,-7.697,-0.487,5.601,3.401
5.9883,-10.428,9.657,-17.655,14.25,-11.159,-3.178,4.198,1.903
5.9922,-7.614,4.733,-19.57,19.373,-12.161,-3.981,4.939,0.308
5.9961,-12.173,6.095,-18.747,17.125,-14.624,-6.592,3.002,-4.962
6.0,-10.189,-2.354,-18.551,17.18,-17.602,-4.416,5.887,-4.654
6.0039,-11.502,1.667,-23.06,16.105,-17.484,-2.665,7.292,-5.747
6.0078,-12.546,-1.894,-24.059,14.424,-17.661,-4.518,8.849,-1.985
6.0117,-9.916,-8.175,-15.241,15.546,-17.183,-8.5,8.594,-1.987
6.0156,-12.719,-9.268,-17.675,13.569,-17.204,-12.247,7.584,-2.97
6.0195,-14.408,-10.304,-13.528,15.005,-14.851,-7.863,5.972,1.289
6.0234,-10.545,-13.322,-11.539,7.854,-15.304,-13.338,8.698,-0.052
6.0273,-6.443,-11.684,-7.993,10.836,-7.915,-16.286,6.867,3.583
6.0312,-6.678,-15.161,-4.272,7.236,-7.209,-13.616,11.732,8.941
6.0352,-11.808,-14.963,-5.204,4.467,-1.262,-10.011,6.629,10.355
6.0391,-11.789,-10.716,-7.73,2.682,-6.885,-13.164,8.089,6.781
6.043,-12.701,-9.562,-6.154,-0.281,-5.023,-19.733,4.651,8.29
6.0469,-12.664,-11.689,-3.885,-0.896,0.866,-7.765,9.665,6.197
6.0508,-14.688,-11.567,-4.368,0.037,-3.518,-14.773,6.87,8.032
6.0547,-13.443,-12.362,-8.318,-5.443,-3.774,-9.284,10.388,9.669
6.0586,-14.327,-10.975,-3.564,-8.867,-6.113,-9.731,9.001,11.073
6.0625,-11.954,-15.222,-6.494,-5.471,-1.791,-8.859,9.109,10.588
6.0664,-11.73,-12.246,0.358,-4.496,-7.259,-7.679,5.679,10.411
6.0703,-12.473,-10.526,2.576,-7.393,-3.215,-13.242,2.801,8.223
6.0742,-11.334,-11.355,-0.84,-8.063,-3.682,-9.316,2.975,12.47
6.0781,-9.137,-8.876,0.461,-5.349,-2.324,-6.013,6.49,14.319
6.082,-11.011,-11.543,-3.1,-2.727,-5.278,-8.926,4.374,15.362
6.0859,-12.451,-11.081,0.83,-6.562,-1.394,-9.353,0.677,12.002
6.0898,-12.698,-11.658,-0.797,-4.408,-6.639,-6.635,5.346,13.742
6.0938,-11.762,-6.427,-1.569,-2.44,-10.039,-6.705,2.068,7.728
6.0977,-11.359,-9.336,-0.328,-4.668,-5.944,-6.185,7.251,8.793
6.1016,-6.67,-7.666,-1.676,-2.669,-10.06,-5.645,9.629,9.37
6.1055,-3.585,-10.106,-2.201,-7.939,-9.276,-0.539,12.349,8.074
6.1094,-6.497,-13.759,0.643,0.993,-9.426,0.386,16.336,10.466
6.1133,-1.297,-13.647,-1.175,-5.217,-10.931,-3.363,11.253,11.618
6.1172,0.997,-9.178,6.236,-5.368,-15.895,-4.109,13.852,7.844
6.1211,5.678,-10.261,2.161,-1.602,-8.451,-2.548,15.189,11.783
6.125,8.493,-11.369,9.091,-4.458,-7.824,-4.153,12.095,10.861
6.1289,8.038,-7.735,4.005,-2.82,-6.607,-0.218,12.876,20.131
6.1328,9.214,-7.617,5.973,-3.084,-5.72,4.353,14.345,17.039
6.1367,11.334,1.2,5.132,-3.609,-9.312,3.032,15.371,15.835
6.1406,12.561,-2.778,5.556,-5.907,-6.541,2.231,11.332,13.86
6.1445,5.737,-1.616,7.313,-5.206,-10.068,7.265,15.011,12.239
6.1484,10.957,3.627,7.081,-8.732,-7.909,8.685,11.47,11.177
6.1523,12.594,-2.705,4.072,-7.055,-7.169,11.761,17.383,4.824
6.1562,9.186,0.184,-1.296,-9.313,-6.098,15.573,15.482,9.246
6.1602,9.305,2.776,-1.16,-9.381,-11.1,17.195,16.383,7.232
6.1641,5.624,-2.016,-2.831,-9.082,-7.45,15.517,10.599,2.298
6.168,6.356,-5.049,-2.355,-4.919,-8.296,14.084,4.869,0.147
6.1719,3.602,-1.992,-2.061,-6.757,-9.801,17.225,0.584,-7.001
6.1758,2.319,1.564,-0.755,-6.834,-9.603,15.072,0.193,-3.685
6.1797,8.092,-1.426,0.146,-2.72,-9.398,14.335,-2.357,-0.574
6.1836,2.233,-4.879,-4.294,-6.714,-6.204,12.65,-2.035,-0.501
6.1875,0.727,-5.143,0.047,-0.086,-9.133,9.391,-8.55,-3.811
6.1914,-3.217,-4.9,4.189,-3.373,-5.939,12.228,-4.54,-8.19
6.1953,-4.199,-3.111,4.137,-5.618,-9.533,9.086,-6.805,-6.321
6.1992,-1.654,-2.096,0.829,-9.743,-9.081,7.163,-9.249,-9.037
6.2031,-2.341,-4.807,-0.896,-7.597,-5.783,7.753,-4.103,-11.635
6.207,0.172,-8.767,3.441,-9.438,-6.85,5.785,-8.533,-5.89
6.2109,0.661,-14.637,-0.07,-10.393,-4.674,8.184,-6.872,-11.941
6.2148,1.405,-15.617,10.102,-8.432,-1.16,4.778,-10.963,-12.101
6.2188,3.322,-11.556,11.119,-12.905,-0.026,1.012,-5.785,-8.714
6.2227,8.808,-14.3,18.205,-14.318,3.908,-1.266,-13.026,-7.05
6.2266,6.065,-11.021,13.016,-14.919,8.055,-3.009,-12.002,-3.267
6.2305,9.446,-8.955,19.528,-13.147,7.226,-5.401,-9.52,1.695
6.2344,11.813,-10.352,18.612,-14.6,12.97,-3.22,-5.101,1.387
6.2383,11.385,-7.677,19.344,-13.406,13.158,-1.256,-5.739,1.372
6.2422,5.589,-2.568,18.05,-18.901,15.158,-0.755,-7.146,0.719
6.2461,8.12,1.827,21.674,-17.9,15.405,3.18,-4.33,-4.594
6.25,12.201,5.153,20.254,-20.785,14.597,6.75,-4.84,-2.929
6.2539,10.994,5.174,20.244,-22.508,17.228,7.768,-2.06,-0.299
6.2578,10.282,4.345,16.855,-18.195,13.828,13.087,1.051,-1.23
6.2617,9.142,3.235,12.878,-16.347,13.696,9.598,-3.573,-0.722
6.2656,8.986,3.997,12.144,-14.647,11.759,10.605,-6.441,1.512
6.2695,11.367,7.179,11.494,-11.042,13.388,10.19,-5.797,-2.087
6.2734,11.772,10.968,16.454,-9.557,12.386,12.474,-6.347,-4.476
6.2773,13.18,12.07,10.334,-7.626,16.757,11.281,-7.966,-2.99
6.2812,13.184,7.84,12.936,-5.673,16.641,12.353,-6.38,1.838
6.2852,10.298,11.111,9.493,-4.822,12.267,9.321,-9.287,0.019
6.2891,11.072,16.196,8.075,-0.026,11.02,10.704,-9.254,-4.436
6.293,14.867,15.284,5.769,-0.851,2.686,14.362,-8.824,-11.539
6.2969,5.521,13.047,6.063,-1.19,1.532,8.128,-7.953,-9.824
6.3008,10.328,20.025,2.438,0.537,2.788,15.655,-3.337,-10.607
6.3047,8.644,13.38,-0.44,3.55,2.455,14.633,-3.853,-11.614
6.3086,11.428,11.871,0.595,4.48,0.688,11.871,-4.205,-13.111
6.3125,10.503,10.182,-0.667,5.29,-3.153,10.066,-2.834,-13.231
6.3164,12.723,8.081,-0.519,6.711,2.614,12.973,-2.895,-14.108
6.3203,15.134,7.637,3.749,9.468,6.23,9.581,-4.191,-14.6
6.3242,14.896,13.716,3.107,2.951,6.949,5.077,-4.411,-8.097
6.3281,17.596,11.516,4.075,8.805,8.776,5.201,-8.48,-7.291
6.332,9.887,11.075,1.799,3.202,8.194,3.7,-10.314,-8.599
6.3359,15.647,10.998,0.169,3.814,6.11,5.109,-3.251,-7.679
6.3398,10.665,9.044,6.125,4.629,7.62,3.041,-5.758,-9.072
6.3438,9.942,15.157,5.371,8.08,11.722,3.991,-7.172,-6.825
6.3477,3.824,11.863,2.674,4.79,7.321,8.265,-5.448,-10.781
6.3516,3.186,13.741,-2.087,1.201,7.596,5.593,-2.232,-11.094
6.3555,3.253,8.309,-4.107,0.287,10.598,4.663,-2.982,-12.688
6.3594,0.541,5.581,-1.934,-3.011,10.004,3.88,-4.898,-13.991
6.3633,-1.134,8.989,-5.266,2.673,5.301,5.247,-10.93,-11.101
6.3672,-0.995,6.349,-4.901,2.49,6.664,0.93,-13.523,-13.095
6.3711,-7.239,4.049,0.853,2.46,7.406,0.503,-19.136,-15.724
6.375,-2.046,8.867,-3.005,4.602,10.147,-4.874,-14.456,-11.904
6.3789,-4.932,11.175,0.042,3.85,13.158,-1.198,-14.144,-9.674
6.3828,-7.4,8.637,-6.755,7.459,9.031,-5.607,-14.49,-14.806
6.3867,-12.594,4.703,-2.786,2.674,11.52,-4.8,-16.122,-12.851
6.3906,-10.909,5.273,0.858,6.703,8.123,-7.355,-18.037,-11.304
6.3945,-17.833,7.247,-2.956,3.791,11.752,-4.754,-18.036,-16.525
6.3984,-11.621,7.238,-4.015,3.331,7.553,-8.549,-16.362,-15.738
6.4023,-15.262,2.645,-6.767,3.965,6.631,-5.041,-11.993,-11.204
6.4062,-11.564,0.937,-2.799,1.533,7.498,-7.986,-10.78,-7.718
6.4102,-11.327,-0.762,-5.808,5.439,4.956,-7.363,-3.473,-5.828
6.4141,-7.63,-1.329,-2.484,6.047,1.799,-12.756,-8.717,-2.079
6.418,-8.184,-2.441,-2.309,5.726,5.807,-14.027,-5.83,-2.996
6.4219,-6.249,-1.401,5.162,5.806,7.754,-13.855,-8.009,-0.936
6.4258,-3.005,2.639,5.139,5.85,7.268,-14.683,-1.431,0.817
6.4297,2.302,3.151,2.694,4.387,11.603,-14.524,0.367,6.002
6.4336,1.086,2.769,0.162,6.128,7.491,-14.97,1.643,10.245
6.4375,-1.464,7.101,5.36,5.638,9.732,-13.497,1.867,10.794
6.4414,-1.879,5.489,1.137,4.359,9.467,-9.747,4.974,9.252
6.4453,-4.659,12.109,-1.676,7.485,8.033,-7.578,5.63,9.198
6.4492,-0.437,11.561,-5.545,3.988,6.035,-8.806,8.836,10.571
6.4531,-4.65,17.18,-6.591,2.375,5.267,-6.006,15.394,8.431
6.457,-0.215,7.399,-11.173,4.987,1.645,-3.773,13.156,10.97
6.4609,-2.493,7.51,-11.341,5.293,0.535,0.872,13.587,6.017
6.4648,1.255,9.524,-9.307,9.21,-1.704,-2.865,9.997,6.104
6.4688,-5.717,9.916,-11.889,11.493,-4.936,-0.195,7.423,4.338
6.4727,-3.185,13.401,-11.27,10.981,-3.028,-1.219,7.54,6.702
6.4766,0.814,7.828,-15.022,15.431,-3.439,-3.165,11.882,3.42
6.4805,-1.358,9.892,-15.29,15.114,-5.576,1.588,5.795,4.787
6.4844,-7.318,9.147,-12.951,16.991,-2.8,-4.353,6.28,0.569
6.4883,-8.12,7.366,-18.127,17.534,-10.829,1.256,2.832,3.204
6.4922,-10.643,3.514,-16.98,24.352,-13.589,-2.435,-1.7,1.92
6.4961,-11.087,7.359,-21.534,15.787,-15.43,-7.914,2.6,-0.625
6.5,-13.266,4.942,-16.54,11.411,-17.38,-0.66,10.357,-1.49
6.5039,-12.155,0.313,-21.647,11.472,-14.807,-1.81,8.466,-1.213
6.5078,-15.532,-4.423,-18.665,16.272,-18.44,-5.243,11.481,-1.056
6.5117,-12.373,-7.782,-19.473,17.874,-18.815,-8.23,7.199,-0.924
6.5156,-11.345,-10.543,-15.167,13.694,-18.299,-12.339,2.067,-0.307
6.5195,-11.301,-10.139,-11.911,16.336,-17.242,-7.256,3.564,-1.663
6.5234,-12.168,-11.975,-11.649,13.095,-15.756,-15.835,6.354,1.636
6.5273,-5.568,-14.476,-6.905,8.903,-10.171,-17.165,6.497,5.104
6.5312,-6.74,-15.641,-9.336,6.762,-5.469,-14.004,6.499,6.709
6.5352,-10.126,-15.249,-4.808,5.803,-5.973,-17.665,5.469,5.364
6.5391,-10.902,-12.525,-5.474,4.901,-2.988,-16.368,8.051,5.902
6.543,-14.539,-11.565,-2.687,0.832,-4.168,-12.169,5.1,8.286
6.5469,-13.984,-9.845,-4.011,-4.844,-3.745,-12.141,7.479,9.566
6.5508,-13.012,-9.099,-3.732,-6.778,-0.141,-11.847,8.67,8.446
6.5547,-9.73,-12.325,-7.023,-3.92,-3.833,-8.835,8.739,14.911
6.5586,-14.149,-9.509,-4.707,-7.234,-4.013,-8.349,7.768,8.113
6.5625,-12.216,-13.757,-4.233,-4.992,-4.87,-7.503,7.35,10.842
6.5664,-14.424,-13.826,-3.709,-4.763,-1.853,-9.771,9.895,12.447
6.5703,-11.685,-11.055,-1.175,-4.996,-4.064,-10.26,6.605,12.512
6.5742,-10.832,-14.851,-0.075,-5.324,-4.032,-10.356,5.559,13.004
6.5781,-7.671,-12.477,-1.649,-3.428,-0.77,-9.759,1.834,15.357
6.582,-10.447,-8.972,-0.894,-2.906,-4.062,-5.151,0.564,14.095
6.5859,-13.303,-14.129,-2.428,-2.811,-3.014,-5.032,5.448,16.767
6.5898,-13.581,-7.468,4.891,-4.353,-5.256,-8.221,4.965,14.477
6.5938,-11.557,-5.439,2.724,-2.814,-7.988,-8.417,4.125,8.658
6.5977,-11.53,-8.542,0.797,-4.885,-7.318,-5.309,5.023,10.298
6.6016,-6.174,-7.782,1.6,-6.118,-12.028,1.043,5.595,6.826
6.6055,-5.976,-7.725,-5.509,0.241,-9.619,-3.633,12.851,13.642
6.6094,1.427,-12.587,-6.372,-6.79,-12.034,-1.127,15.001,11.496
6.6133,-4.823,-10.693,-0.403,-0.224,-6.155,-1.054,11.552,13.873
6.6172,1.845,-13.286,0.009,-3.035,-11.19,-2.471,11.105,11.277
6.6211,2.739,-11.62,4.338,-1.222,-11.034,-3.737,15.152,8.859
6.625,7.532,-10.949,6.272,2.948,-10.379,0.087,12.098,19.633
6.6289,11.228,-7.661,7.879,-4.667,-3.338,0.334,17.926,16.31
6.6328,7.088,-5.009,3.698,-4.384,-6.202,3.109,14.701,14.613
6.6367,11.749,-6.076,6.912,-3.253,-7.674,4.331,13.948,17.875
6.6406,14.309,-5.891,6.273,-5.917,-6.253,6.446,14.243,17.468
6.6445,9.258,-3.02,6.405,-4.304,-6.04,9.65,13.135,10.625
6.6484,10.785,1.576,3.042,-9.166,-6.07,11.703,16.539,9.022
6.6523,12.265,4.665,4.457,-7.954,-7.442,16.711,16.568,8.427
6.6562,9.164,0.783,-0.693,-11.61,-7.928,17.057,16.631,4.403
6.6602,7.042,-1.986,2.019,-11.065,-8.997,14.474,12.926,3.359
6.6641,2.479,-0.251,-2.848,-6.164,-9.68,17.14,8.348,5.994
6.668,7.876,-2.062,1.114,-7.712,-9.34,15.626,5.461,0.12
6.6719,6.617,-1.957,0.112,-1.182,-6.753,16.938,1.33,-2.47
6.6758,4.982,-3.262,-0.536,-7.193,-7.272,10.736,2.648,-2.101
6.6797,6.46,0.638,0.911,-5.85,-8.144,13.784,-0.292,0.534
6.6836,3.035,-8.28,-1.069,-2.331,-7.036,11.025,-4.591,-6.854
6.6875,0.581,-2.177,-5.184,-4.083,-6.151,12.427,-8.545,-4.759
6.6914,0.769,-4.708,-4.969,-6.729,-11.911,9.544,-5.5,-3.114
6.6953,-4.056,-4.654,4.438,-1.451,-11.735,9.756,-9.081,-6.111
6.6992,0.789,-1.387,4.46,-9.676,-5.443,5.496,-9.102,-9.901
6.7031,-3.677,-8.34,5.672,-9.518,-3.21,9.825,-4.599,-8.214
6.707,-1.909,-11.039,2.486,-9.85,-8.009,8.129,-7.987,-7.641
6.7109,3.602,-12.234,1.98,-7.6,-4.49,6.374,-7.921,-10.001
6.7148,3.018,-12.134,7.043,-7.907,-3.932,7.313,-8.872,-7.308
6.7188,3.04,-13.506,11.569,-11.193,-0.782,-0.116,-12.111,-4.295
6.7227,3.772,-14.757,12.528,-11.699,4.277,-0.496,-9.1,-8.06
6.7266,7.141,-12.302,19.768,-13.133,5.058,-1.447,-10.646,-1.384
6.7305,9.702,-7.001,22.171,-12.349,8.398,-0.745,-9.392,0.822
6.7344,9.622,-7.927,19.77,-16.93,11.584,4.049,-9.154,1.661
6.7383,8.674,-4.726,19.984,-11.468,12.548,0.357,-8.823,1.418
6.7422,8.371,-2.903,18.2,-18.579,11.12,-0.104,-9.068,1.065
6.7461,8.316,-0.5,23.575,-19.067,15.773,6.343,-5.873,0.662
6.75,6.601,6.385,19.054,-22.877,14.166,4.512,-4.921,2.339
6.7539,8.945,3.583,16.096,-23.218,14.32,4.814,-2.809,1.424
6.7578,11.721,3.311,15.801,-20.715,14.978,8.788,2.455,0.1
6.7617,6.841,6.919,12.894,-18.156,12.944,8.67,-3.391,-1.939
6.7656,9.375,4.694,14.446,-14.218,14.056,7.276,-3.698,-2.241
6.7695,9.151,7.011,11.346,-13.084,10.598,9.565,-5.301,-1.416
6.7734,12.499,10.169,15.682,-7.907,10.344,10.15,-7.954,-3.244
6.7773,12.488,11.397,11.682,-8.885,12.842,13.43,-7.64,0.488
6.7812,15.981,12.559,12.293,-6.635,12.727,13.345,-8.345,-0.723
6.7852,12.667,16.866,8.04,-2.998,8.038,13.799,-8.479,-0.759
6.7891,7.384,14.459,7.143,1.81,5.162,10.717,-10.682,-6.906
6.793,10.381,10.37,3.958,1.184,6.129,13.94,-10.561,-10.076
6.7969,7.526,16.534,6.261,0.652,2.859,15.061,-8.494,-8.165
6.8008,8.526,15.389,0.718,-1.847,0.526,13.758,-10.508,-11.115
6.8047,10.792,13.525,-0.674,-0.203,4.303,14.479,-1.6,-12.07
6.8086,9.289,11.594,-0.795,1.552,-0.179,10.837,0.725,-10.574
6.8125,12.196,9.326,-0.137,8.966,2.43,13.839,-3.549,-11.183
6.8164,9.65,8.711,-2.335,8.915,0.368,12.742,-3.582,-15.34
6.8203,11.545,10.318,2.088,6.473,2.511,7.404,-3.578,-9.541
6.8242,13.198,8.388,4.826,6.615,3.964,4.128,-8.498,-11.65
6.8281,14.2,7.614,2.34,5.559,1.294,4.608,-3.627,-5.655
6.832,16.774,15.479,2.258,5.178,5.468,4.151,-6.182,-10.697
6.8359,13.723,8.414,2.913,7.565,7.544,4.119,-1.22,-7.748
6.8398,13.334,11.251,2.403,5.083,8.205,5.685,-7.012,-10.223
6.8438,12.321,9.611,0.217,7.902,3.932,4.707,-5.312,-15.462
6.8477,4.202,13.783,0.834,3.936,7.918,6.652,-7.194,-11.209
6.8516,4.989,11.308,0.677,2.407,6.262,6.526,-1.693,-16.612
6.8555,0.608,10.703,-5.608,0.917,8.852,5.031,-6.834,-13.348
6.8594,-0.98,11.753,-5.448,-0.132,7.618,5.611,-4.492,-10.914
6.8633,-2.96,9.296,-7.321,3.555,8.484,3.867,-7.903,-14.926
6.8672,-5.279,9.104,-1.753,2.89,9.32,2.079,-11.201,-16.207
6.8711,-5.812,4.485,-3.076,7.354,9.328,3.6,-13.905,-12.464
6.875,-4.282,11.46,-4.61,5.101,11.728,2.275,-17.057,-13.311
6.8789,-7.382,4.551,-3.31,5.317,10.25,-0.906,-21.533,-12.159
6.8828,-5.308,8.915,-6.365,5.975,16.285,-3.249,-14.721,-8.065
6.8867,-11.487,7.261,-5.89,10.026,6.903,-7.616,-18.451,-13.341
6.8906,-6.296,6.41,-6.205,3.685,6.864,-6.238,-15.389,-12.949
6.8945,-13.908,3.762,-5.149,9.226,8.903,-9.771,-16.204,-10.943
6.8984,-12.774,5.297,-0.772,3.778,8.421,-5.631,-12.31,-14.67
6.9023,-14.868,2.39,-5.898,0.544,7.8,-12.144,-10.063,-7.113
6.9062,-8.259,0.927,-4.031,2.263,7.7,-8.338,-13.754,-9.134
6.9102,-8.849,-1.863,-5.941,1.809,1.463,-11.962,-5.755,-5.154
6.9141,-9.375,-6.514,-0.776,7.779,8.568,-12.357,-6.8,-3.499
6.918,-10.52,0.068,-1.892,4.97,5.88,-13.385,-3.106,-3.465
6.9219,-4.439,-1.323,2.127,7.085,10.759,-14.248,-2.954,-1.149
6.9258,-4.234,-1.09,2.935,8.428,6.385,-16.614,-0.819,3.346
6.9297,2.681,-0.389,7.413,4.579,12.262,-14.063,-0.173,8.197
6.9336,1.632,2.532,3.731,5.578,10.498,-15.639,0.531,6.857
6.9375,-0.502,1.875,1.103,3.588,11.572,-12.689,2.866,6.882
6.9414,-6.279,1.752,3.239,4.805,9.614,-10.018,1.37,11.691
6.9453,-3.491,9.677,4.81,9.454,8.571,-9.605,5.538,6.634
6.9492,0.162,11.514,-5.28,4.713,4.739,-8.679,6.181,8.727
6.9531,1.296,10.239,-6.984,2.611,5.324,-5.077,8.604,7.876
6.957,0.5,7.488,-8.738,3.472,2.853,0.067,13.045,7.92
6.9609,-5.934,9.067,-10.929,7.262,1.504,-2.971,13.59,10.331
6.9648,-2.915,5.757,-11.462,10.343,0.159,-2.895,10.862,6.08
6.9688,-1.485,7.067,-13.746,11.295,-2.835,-0.627,7.994,4.586
6.9727,-6.297,7.999,-9.173,14.535,-6.116,-3.189,5.691,4.577
6.9766,-2.798,10.852,-16.42,12.749,-3.747,-4.981,6.24,4.442
6.9805,-3.193,7.357,-15.821,14.209,-0.021,1.162,4.726,4.09
6.9844,-6.527,5.927,-14.701,18.442,-4.35,-3.627,5.432,3.29
6.9883,-12.272,9.866,-17.49,16.334,-16.496,-2.462,1.446,5.341
6.9922,-11.298,6.141,-19.707,19.892,-12.904,-4.311,5.213,0.849
6.9961,-12.306,5.221,-21.1,17.084,-12.721,-4.362,3.045,-3.137
7.0,-12.165,1.744,-20.041,11.893,-15.803,-5.613,6.348,-1.152
7.0039,-13.103,-2.079,-22.206,14.891,-17.099,-2.326,9.05,-6.066
7.0078,-13.222,-9.205,-20.356,11.383,-17.602,-4.165,8.855,0.296
7.0117,-12.723,-6.297,-22.029,16.587,-16.575,-4.334,9.492,0.437
7.0156,-11.361,-9.489,-14.764,14.56,-19.52,-10.419,2.647,2.808
7.0195,-11.455,-11.779,-13.022,17.48,-12.894,-7.821,4.796,1.671
7.0234,-9.757,-12.311,-10.364,13.755,-12.366,-17.798,7.766,2.911
7.0273,-7.36,-11.306,-6.207,7.161,-11.115,-17.809,7.04,7.545
7.0312,-11.311,-16.653,-8.694,3.241,-4.967,-11.034,10.217,6.128
7.0352,-7.72,-14.925,-7.815,3.931,-9.458,-13.441,9.938,7.706
7.0391,-10.342,-15.242,-5.789,0.704,-7.22,-13.722,6.771,8.244
7.043,-11.458,-7.968,-3.771,3.688,-6.813,-13.297,5.599,10.564
7.0469,-10.011,-8.525,-3.269,-3.511,-0.505,-11.927,4.946,6.042
7.0508,-15.842,-14.506,-5.493,-4.563,-5.277,-10.475,7.327,6.503
7.0547,-16.134,-14.098,-8.92,-8.452,-7.949,-10.804,8.66,9.855
7.0586,-12.322,-12.705,-6.324,-8.096,-5.302,-5.827,8.344,11.388
7.0625,-13.511,-14.167,-3.602,-6.796,-3.936,-6.057,6.368,8.546
7.0664,-13.008,-15.608,-2.356,-3.63,-3.372,-5.391,6.951,11.206
7.0703,-13.105,-8.13,1.334,-4.92,0.484,-5.571,7.773,13.117
7.0742,-9.221,-10.553,3.568,-7.656,0.079,-8.474,5.384,14.095
7.0781,-7.551,-9.946,1.102,-1.978,-1.569,-10.762,2.762,13.923
7.082,-8.41,-12.318,2.129,-4.929,-4.213,-3.694,5.467,13.803
7.0859,-10.679,-9.209,1.116,-4.25,-0.833,-8.608,3.948,16.912
7.0898,-15.033,-10.464,3.619,-8.625,-6.821,-5.68,3.074,11.942
7.0938,-8.954,-9.028,4.307,-2.316,-8.925,-6.542,3.645,12.243
7.0977,-6.589,-6.581,2.153,-4.549,-9.284,-5.855,5.365,13.571
7.1016,-5.705,-11.624,0.669,-5.301,-11.557,-1.739,9.825,11.591
7.1055,-6.804,-6.769,-1.961,-5.922,-10.875,-1.089,11.396,8.604
7.1094,-1.975,-11.288,-1.339,-4.862,-11.575,0.222,11.172,8.57
7.1133,0.373,-9.867,-0.28,-2.88,-10.418,-2.863,11.357,10.58
7.1172,4.555,-14.094,4.009,-0.383,-12.278,-2.602,13.242,12.914
7.1211,3.243,-12.511,3.37,-0.206,-12.376,-4.36,13.527,13.462
7.125,8.066,-11.674,5.478,-2.651,-10.83,-2.621,12.756,18.772
7.1289,12.44,-7.845,1.328,-0.845,-5.529,-0.813,12.103,16.918
7.1328,11.853,-7.193,9.421,-3.094,-5.357,5.106,17.421,15.959
7.1367,9.041,-6.637,5.672,-4.226,-7.2,2.633,16.799,13.317
7.1406,11.333,-5.377,7.155,-3.825,-7.861,0.407,10.178,15.757
7.1445,11.323,-3.388,8.626,-8.79,-6.562,9.271,16.587,11.018
7.1484,10.442,0.69,4.682,-7.632,-4.557,9.939,13.869,6.209
7.1523,10.654,0.046,4.579,-12.347,-9.042,11.8,15.177,7.996
7.1562,8.975,-1.376,-2.97,-11.007,-8.069,13.748,16.731,4.634
7.1602,11.161,1.882,3.266,-11.489,-7.544,13.919,15.862,3.889
7.1641,5.229,-1.948,0.907,-6.057,-11.905,19.322,11.267,2.443
7.168,5.42,0.958,0.046,-1.356,-10.221,14.309,5.961,-1.426
7.1719,6.866,-2.267,3.082,-4.452,-9.018,9.622,-0.57,-1.77
7.1758,8.765,-0.856,-2.218,-2.847,-10.008,13.326,-4.337,-2.685
7.1797,3.212,-2.29,-0.931,0.93,-6.173,15.08,-0.54,-3.046
7.1836,1.582,-6.597,2.418,-2.35,-6.685,12.7,-1.723,-4.918
7.1875,-2.438,-0.916,-3.594,-4.441,-6.548,9.599,-8.322,-6.234
7.1914,-0.378,-4.051,2.278,-4.948,-10.712,7.991,-9.121,-9.828
7.1953,-3.616,-2.341,2.957,-5.529,-8.154,6.963,-10.469,-9.0
7.1992,-2.075,-6.276,5.938,-8.939,-4.517,11.36,-10.01,-10.646
7.2031,0.441,-7.241,-1.268,-10.242,-2.095,8.096,-5.549,-8.458
7.207,-1.867,-11.412,5.741,-7.461,-2.918,4.36,-6.53,-6.481
7.2109,0.219,-9.501,3.446,-6.969,-7.045,6.838,-7.742,-8.394
7.2148,0.165,-12.339,6.988,-12.126,-2.23,3.694,-3.095,-8.258
7.2188,4.189,-11.889,9.103,-11.175,-1.226,-0.249,-12.347,-6.392
7.2227,6.603,-8.893,12.367,-11.976,4.234,-3.221,-8.635,-4.599
7.2266,6.816,-8.257,17.277,-11.481,6.1,-3.775,-11.219,-2.436
7.2305,9.218,-8.032,15.467,-11.56,7.185,1.032,-8.565,0.04
7.2344,11.635,-10.92,20.294,-9.19,11.498,0.101,-7.448,-0.589
7.2383,9.642,-7.02,18.68,-16.435,14.283,1.186,-5.959,3.067
7.2422,5.639,-4.388,18.364,-17.892,13.948,1.52,-7.912,0.539
7.2461,10.056,2.274,19.427,-17.872,14.999,3.257,-7.101,2.93
7.25,7.315,3.371,19.575,-21.922,15.433,4.19,-5.168,1.932
7.2539,12.803,1.179,16.119,-20.903,15.972,7.613,-5.065,-0.781
7.2578,11.939,3.82,14.907,-19.796,15.472,12.599,-0.988,2.95
7.2617,10.157,1.739,15.458,-21.459,12.653,13.993,-2.517,-5.38
7.2656,10.068,6.032,16.317,-13.143,12.547,8.432,-4.038,2.564
7.2695,10.372,4.89,13.611,-11.491,15.951,9.875,-6.877,-4.615
7.2734,13.633,11.206,11.42,-6.755,13.423,11.969,-8.214,-0.841
7.2773,12.524,12.153,12.043,-7.308,13.547,14.833,-5.836,-0.548
7.2812,13.497,15.855,10.917,-7.357,12.812,15.65,-6.343,0.664
7.2852,13.398,14.378,5.521,-2.728,10.084,11.04,-6.055,-3.704
7.2891,8.884,12.941,5.634,-4.358,7.066,15.054,-8.764,-9.919
7.293,7.806,16.762,4.944,-1.667,6.182,12.288,-6.867,-9.069
7.2969,6.686,13.086,4.326,2.122,3.363,14.368,-9.36,-10.876
7.3008,7.551,13.389,0.947,0.524,3.14,14.546,-6.966,-15.473
7.3047,6.508,14.104,1.713,3.927,0.792,11.106,-2.202,-11.574
7.3086,11.733,6.785,-4.007,0.175,1.3,14.466,-1.91,-14.123
7.3125,14.028,9.309,-3.539,5.867,1.299,13.742,-4.471,-11.207
7.3164,14.05,6.776,0.41,6.903,-0.113,9.14,-7.005,-13.32
7.3203,9.531,9.295,2.198,10.108,-2.095,6.266,-6.148,-8.388
7.3242,15.961,7.317,0.326,9.09,5.567,2.173,-7.218,-11.342
7.3281,18.176,10.358,1.884,8.494,6.845,6.299,-2.035,-8.194
7.332,13.662,9.47,1.905,10.033,5.755,5.409,-3.809,-8.456
7.3359,12.669,12.646,1.801,5.909,9.342,2.995,-7.333,-11.63
7.3398,5.899,11.064,2.958,8.328,4.679,3.737,-8.725,-10.261
7.3438,8.32,11.065,0.954,1.652,9.602,4.457,-8.685,-10.004
7.3477,4.136,13.056,3.862,-0.726,7.91,3.527,-7.955,-11.322
7.3516,5.247,10.486,-0.335,1.293,3.969,5.789,-6.42,-13.35
7.3555,-0.162,12.4,-5.12,-3.435,8.74,3.26,-3.58,-15.678
7.3594,1.661,10.843,-4.51,1.859,6.845,9.311,-8.755,-11.834
7.3633,0.349,13.291,-4.31,2.562,5.883,5.025,-4.577,-13.027
7.3672,-4.731,6.723,-1.207,5.732,5.711,0.254,-13.896,-12.713
7.3711,-5.982,7.492,-4.092,3.974,8.155,-4.909,-17.181,-14.613
7.375,-8.305,6.634,-1.375,4.404,9.037,0.424,-12.346,-16.18
7.3789,-5.482,7.359,-3.411,5.811,7.238,-1.463,-13.719,-10.281
7.3828,-8.155,6.621,-0.975,4.395,13.183,-3.065,-17.235,-10.633
7.3867,-12.754,5.111,-1.241,5.133,8.852,-3.165,-16.711,-8.223
7.3906,-11.009,7.428,-2.891,7.502,6.456,-4.956,-16.915,-11.972
7.3945,-13.905,4.238,-3.54,5.491,4.843,-7.802,-16.634,-12.767
7.3984,-15.069,6.966,-2.473,3.336,8.457,-9.401,-17.304,-11.371
7.4023,-13.386,4.409,-4.793,3.19,4.228,-9.766,-16.63,-11.857
7.4062,-9.529,0.845,-1.603,6.957,6.617,-8.265,-10.514,-9.991
7.4102,-9.882,-1.993,-4.111,4.225,4.463,-7.42,-3.352,-7.099
7.4141,-10.229,2.417,-3.106,5.528,4.338,-12.544,-2.401,-7.084
7.418,-6.588,-3.809,-0.759,3.632,4.081,-11.765,-5.96,-3.619
7.4219,-7.182,-0.565,-0.378,6.663,7.026,-15.546,-6.052,3.689
7.4258,-1.927,-1.621,3.942,7.473,10.47,-15.732,-1.468,5.517
7.4297,0.051,4.303,1.117,7.595,12.22,-10.776,1.25,7.387
7.4336,-0.926,3.588,4.667,6.33,10.054,-11.009,3.558,11.933
7.4375,0.178,2.306,-0.297,8.106,10.245,-9.823,-1.322,7.639
7.4414,-2.967,7.287,2.123,7.044,10.757,-13.617,11.285,13.704
7.4453,-0.505,9.378,2.834,6.532,4.513,-5.885,8.984,7.183
7.4492,-0.11,9.442,-6.325,5.126,6.844,-7.785,8.714,12.026
7.4531,-6.964,12.154,-1.262,6.28,3.536,-4.974,10.043,12.279
7.457,0.662,10.563,-9.115,4.356,1.108,-6.283,14.786,4.729
7.4609,-8.845,9.321,-9.813,4.693,1.036,-0.135,13.512,10.405
7.4648,-4.751,8.603,-9.653,11.411,-2.91,-3.173,11.11,5.682
7.4688,-1.466,9.984,-9.686,13.694,-5.569,-1.014,9.909,4.164
7.4727,-3.614,9.959,-11.434,16.615,-0.915,-4.634,7.361,6.166
7.4766,-5.715,9.283,-11.58,17.219,-2.122,1.52,7.678,3.433
7.4805,-5.928,6.8,-14.382,20.016,-9.108,-0.436,7.823,6.434
7.4844,-3.872,10.21,-13.271,18.941,-10.591,3.132,6.244,2.407
7.4883,-12.411,3.856,-16.385,19.129,-9.361,-4.109,5.071,2.369
7.4922,-8.389,6.291,-13.819,15.664,-13.6,0.026,6.596,2.097
7.4961,-11.761,3.903,-16.601,17.728,-11.584,-7.372,0.985,-1.674
7.5,-14.253,6.003,-23.192,14.444,-14.205,-3.427,4.0,-3.835
7.5039,-13.142,-2.693,-15.47,15.095,-15.58,-5.018,7.329,-1.809
7.5078,-14.371,-6.303,-21.915,14.863,-19.112,-5.282,6.739,-5.269
7.5117,-10.911,-10.174,-16.235,16.144,-16.697,-7.334,7.102,-3.831
7.5156,-10.781,-9.738,-16.337,14.862,-19.774,-11.03,9.356,-2.525
7.5195,-14.285,-14.167,-11.131,15.648,-12.661,-14.606,5.484,1.222
7.5234,-9.745,-12.994,-12.121,6.166,-11.41,-14.873,1.901,2.848
7.5273,-9.271,-17.083,-7.838,9.662,-10.895,-14.406,5.175,6.033
7.5312,-4.882,-13.063,-8.324,9.687,-5.606,-12.212,6.636,7.325
7.5352,-11.374,-14.746,-3.206,9.181,-1.884,-13.799,6.609,6.921
7.5391,-7.132,-15.946,-3.816,4.611,-6.545,-12.072,7.283,11.348
7.543,-11.604,-9.34,-1.514,3.407,-4.569,-17.116,7.052,6.431
7.5469,-14.257,-12.891,-7.415,-3.153,-5.656,-13.935,6.586,8.592
7.5508,-13.291,-8.506,-4.003,-6.424,-3.736,-9.652,5.893,8.203
7.5547,-13.79,-12.473,-4.053,-6.823,-6.653,-8.185,8.594,10.507
7.5586,-15.419,-9.237,-4.755,-7.743,-4.14,-9.186,8.285,8.742
7.5625,-13.307,-11.723,-2.399,-8.296,-4.76,-5.511,7.635,12.058
7.5664,-15.804,-14.976,-3.36,-6.873,-1.343,-9.31,7.531,12.621
7.5703,-16.542,-13.854,-0.968,-7.767,-7.66,-10.655,5.188,12.363
7.5742,-11.309,-9.967,2.019,-4.484,-3.297,-8.161,5.166,12.009
7.5781,-13.022,-11.421,-4.974,-5.2,0.631,-8.295,2.638,12.346
7.582,-10.882,-11.273,0.543,-5.063,-2.913,-8.285,6.456,19.629
7.5859,-11.976,-8.109,-1.085,-4.472,-4.423,-7.686,4.601,11.458
7.5898,-12.56,-11.201,-1.625,-1.956,-7.75,-8.495,3.38,13.673
7.5938,-6.491,-8.279,1.279,-2.024,-9.474,-6.82,5.058,11.028
7.5977,-8.919,-5.893,2.705,-7.012,-12.101,-2.794,4.413,9.529
7.6016,-6.503,-6.748,1.334,-8.077,-10.311,-2.779,4.305,10.291
7.6055,-8.598,-10.283,-1.821,-3.208,-11.924,0.339,9.903,9.578
7.6094,-4.63,-12.231,0.495,-6.462,-10.872,0.227,14.124,11.902
7.6133,-0.917,-15.906,2.132,-1.046,-13.454,-2.456,13.071,11.809
7.6172,-0.612,-14.056,2.592,1.924,-12.461,-5.552,12.357,16.851
7.6211,6.811,-10.028,3.425,1.754,-10.746,-4.674,10.974,14.714
7.625,6.114,-9.626,4.59,-0.713,-7.719,-3.566,9.47,15.39
7.6289,10.373,-8.196,7.714,-1.325,-7.006,-2.072,17.217,17.199
7.6328,10.566,-5.247,5.891,1.568,-7.625,3.379,14.503,20.293
7.6367,11.604,-8.083,4.02,-7.887,-5.92,5.093,13.862,13.642
7.6406,9.222,-3.821,2.874,-5.151,-4.791,9.082,12.81,13.031
7.6445,9.624,-0.477,7.374,-4.375,-7.082,4.954,16.417,7.216
7.6484,9.793,-0.621,2.988,-8.772,-8.557,12.236,16.05,10.338
7.6523,8.746,3.84,2.351,-6.783,-7.728,15.244,12.862,9.648
7.6562,10.462,1.813,1.993,-9.031,-12.348,14.158,16.784,4.634
7.6602,8.681,-0.632,-4.147,-7.188,-9.74,16.76,12.267,7.61
7.6641,6.853,1.805,-1.357,-6.256,-11.154,17.927,8.04,0.993
7.668,5.733,-4.58,-0.713,-5.62,-12.056,14.087,4.892,-0.3
7.6719,8.437,-1.216,0.991,-5.312,-10.446,12.825,0.615,-0.556
7.6758,6.536,-0.612,2.598,-3.592,-8.206,11.416,-2.927,1.992
7.6797,5.593,-4.008,-3.012,-5.324,-4.525,7.948,-0.744,-3.328
7.6836,4.412,-2.6,0.669,-1.252,-4.564,12.529,-4.849,-2.319
7.6875,5.031,-5.986,2.203,-1.604,-9.514,9.982,-5.458,-3.719
7.6914,-3.124,-2.4,0.784,-1.494,-9.374,7.823,-8.007,-6.902
7.6953,0.161,-1.718,1.618,-7.789,-9.159,9.642,-8.257,-8.962
7.6992,-5.092,-4.227,2.836,-11.072,-5.661,5.414,-12.934,-9.525
7.7031,-0.447,-10.617,2.587,-9.134,-5.959,9.851,-9.432,-11.957
7.707,2.566,-11.612,3.686,-3.634,-5.293,8.684,-5.828,-6.879
7.7109,0.733,-10.844,5.688,-6.489,-3.619,5.269,-9.833,-9.971
7.7148,1.105,-12.919,5.918,-9.941,-4.325,3.285,-7.664,-9.645
7.7188,1.724,-18.011,13.527,-8.69,2.468,-1.731,-12.26,-5.177
